
    Thermo 2.0
    ==========

Copyright (C) 2014-2017-2019 Simone Conti
Copyright (C) 2015-2016 Universit√© de Strasbourg
License GPLv3+: GNU GPL version 3 or later <http://gnu.org/licenses/gpl.html>.
This is free software: you are free to change and redistribute it.
There is NO WARRANTY, to the extent permitted by law.

Written by Simone Conti.


Molecule A: <rig.inp>                
---------------------------------------------

Parsed thermodynamic quantities:
   Temperature [K]:           300
   Number of moles [mol]:     1
   Volume [dm^3]:             1
   Concentration [M]:         1
   Molecular mass [g/mol]:    10163
   Molar energy [kcal/mol]:   -3082.420000
   Degree of freedom:
      translational:          3
      rotational:             3
         moments of inerzia [g/mol/A^2]:
            734546.500000
            1142238.000000
            1233993.000000
         symmetry number:     1
      vibrational modes:      4320
         frequencies [1/cm]: 
   4.572000     6.507000     6.728000     7.317000     7.833000     9.382000  
   9.700000     9.781000    10.333000    10.959000    11.619000    11.906000  
  12.135000    12.260000    13.051000    13.331000    13.747000    14.358000  
  14.746000    14.992000    15.327000    15.649000    15.749000    16.069000  
  16.349000    16.780000    17.562000    17.630000    17.948000    18.429000  
  18.660000    19.061000    19.344000    19.780000    19.953000    20.306000  
  20.719000    20.908000    21.134000    21.474000    21.694000    22.148000  
  22.475000    22.835000    23.024000    23.444000    23.527000    24.184000  
  24.273000    24.663000    24.801000    24.983000    25.542000    25.939000  
  26.231000    26.388000    26.606000    27.073000    27.153000    27.595000  
  27.818000    28.260000    28.385000    28.929000    29.283000    29.564000  
  29.940000    30.325000    30.474000    30.905000    31.171000    31.363000  
  31.540000    32.229000    32.434000    32.611000    32.707000    33.028000  
  33.179000    33.360000    33.691000    33.740000    34.372000    34.747000  
  34.878000    35.215000    35.516000    35.773000    36.374000    36.510000  
  36.647000    36.913000    37.268000    37.713000    37.775000    38.262000  
  38.919000    39.037000    39.178000    39.399000    39.481000    39.753000  
  40.000000    40.516000    40.637000    40.822000    41.047000    41.357000  
  41.828000    42.042000    42.373000    42.566000    42.787000    43.375000  
  43.747000    43.970000    44.135000    44.279000    44.806000    45.214000  
  45.266000    45.442000    45.501000    46.258000    46.483000    47.038000  
  47.197000    47.431000    47.548000    47.978000    48.231000    48.332000  
  48.754000    48.969000    49.374000    49.626000    50.033000    50.312000  
  50.409000    50.915000    51.068000    51.516000    51.755000    52.145000  
  52.388000    52.644000    52.855000    53.282000    53.961000    54.292000  
  54.473000    54.682000    54.846000    55.073000    55.219000    55.501000  
  55.605000    55.978000    56.200000    56.439000    56.731000    56.993000  
  57.364000    57.548000    57.697000    57.930000    58.126000    58.661000  
  58.767000    59.145000    59.378000    59.788000    60.135000    60.176000  
  60.462000    61.063000    61.474000    61.567000    61.782000    62.031000  
  62.302000    62.569000    62.812000    63.038000    63.131000    63.324000  
  63.842000    64.111000    64.393000    64.540000    64.854000    65.137000  
  65.571000    65.775000    66.021000    66.322000    66.792000    67.203000  
  67.336000    67.584000    67.651000    67.739000    67.885000    68.589000  
  68.852000    68.935000    69.071000    69.303000    69.655000    69.748000  
  70.050000    70.509000    70.670000    71.054000    71.117000    71.455000  
  71.727000    72.115000    72.515000    72.687000    72.869000    73.187000  
  73.417000    74.070000    74.182000    74.555000    75.010000    75.208000  
  75.433000    75.707000    75.917000    76.174000    76.500000    76.649000  
  76.916000    77.351000    77.753000    78.041000    78.245000    78.439000  
  78.817000    79.313000    79.406000    79.781000    80.134000    80.689000  
  81.074000    81.254000    81.415000    81.977000    82.141000    82.641000  
  82.885000    83.246000    83.653000    83.850000    84.024000    84.312000  
  84.598000    84.644000    84.992000    85.616000    85.842000    86.050000  
  86.213000    86.725000    86.778000    87.284000    87.635000    87.927000  
  88.022000    88.362000    88.662000    88.866000    89.032000    89.454000  
  89.984000    90.502000    90.755000    91.108000    91.427000    91.756000  
  92.388000    92.506000    93.091000    93.528000    93.643000    93.962000  
  94.043000    94.752000    94.869000    95.025000    95.185000    95.322000  
  95.854000    96.234000    96.563000    96.812000    97.398000    97.627000  
  97.819000    98.391000    98.532000    98.799000    99.439000    99.561000  
 100.046000   100.508000   101.145000   101.462000   101.737000   101.850000  
 102.163000   102.224000   102.620000   102.686000   103.507000   103.857000  
 104.166000   104.207000   104.699000   104.777000   104.914000   105.580000  
 105.625000   105.937000   106.217000   106.453000   106.745000   107.006000  
 107.456000   107.815000   108.150000   108.383000   108.490000   108.991000  
 109.478000   109.574000   109.782000   110.199000   111.040000   111.203000  
 111.754000   112.492000   112.586000   112.661000   112.952000   113.206000  
 113.543000   113.713000   114.059000   114.748000   114.788000   115.217000  
 115.327000   115.456000   115.747000   116.346000   116.554000   116.846000  
 117.245000   117.829000   118.269000   118.569000   118.832000   119.419000  
 119.699000   119.941000   120.210000   120.946000   121.415000   121.989000  
 122.170000   122.380000   122.482000   122.550000   123.315000   123.408000  
 123.647000   123.698000   124.308000   124.501000   124.849000   125.447000  
 125.671000   126.130000   126.845000   127.498000   127.955000   127.996000  
 128.545000   129.130000   129.442000   129.648000   129.709000   130.049000  
 130.524000   130.897000   131.016000   132.066000   132.528000   132.632000  
 132.854000   133.427000   133.825000   134.288000   134.392000   134.988000  
 135.429000   135.564000   136.346000   136.520000   136.698000   137.182000  
 137.546000   138.401000   138.981000   139.218000   139.326000   139.487000  
 139.941000   140.564000   140.824000   141.217000   141.823000   142.339000  
 143.068000   143.116000   143.762000   144.307000   144.488000   144.718000  
 144.913000   145.024000   145.630000   145.874000   146.048000   146.284000  
 146.424000   146.842000   146.931000   147.632000   148.052000   148.442000  
 148.849000   149.215000   150.285000   151.417000   151.827000   151.902000  
 152.661000   152.855000   153.311000   154.268000   154.337000   154.591000  
 154.750000   155.059000   155.406000   155.932000   156.751000   157.031000  
 157.353000   157.785000   158.374000   158.881000   159.225000   159.407000  
 159.900000   160.226000   160.844000   161.307000   161.423000   161.809000  
 162.029000   162.265000   162.773000   163.058000   163.209000   163.655000  
 164.249000   164.636000   164.820000   165.119000   165.388000   165.446000  
 165.940000   166.322000   166.992000   167.651000   167.825000   168.027000  
 168.636000   168.811000   169.214000   169.287000   169.623000   170.019000  
 170.519000   170.789000   170.826000   171.459000   172.063000   172.213000  
 173.388000   173.563000   173.745000   174.406000   175.010000   175.763000  
 176.522000   177.301000   177.736000   178.062000   178.135000   178.600000  
 178.651000   179.283000   180.223000   180.392000   180.739000   181.646000  
 181.761000   181.991000   182.490000   182.741000   183.241000   183.469000  
 183.889000   184.109000   184.529000   184.585000   184.951000   184.993000  
 185.315000   185.608000   185.848000   186.992000   187.195000   187.673000  
 188.093000   188.447000   188.709000   188.934000   189.234000   189.868000  
 190.537000   191.804000   192.267000   192.794000   193.140000   193.381000  
 194.767000   195.266000   195.317000   195.506000   195.581000   196.423000  
 196.537000   197.054000   197.314000   197.869000   198.578000   198.878000  
 199.733000   200.316000   200.600000   200.816000   201.525000   202.365000  
 202.479000   203.216000   203.598000   203.711000   204.504000   204.767000  
 205.060000   205.286000   206.212000   206.587000   207.066000   207.585000  
 207.703000   208.019000   208.255000   208.658000   208.808000   209.028000  
 209.520000   210.847000   211.521000   211.962000   212.325000   213.733000  
 214.235000   214.277000   214.429000   214.988000   215.210000   215.443000  
 215.591000   216.244000   216.850000   217.102000   217.617000   218.112000  
 218.511000   218.592000   219.162000   219.574000   219.684000   220.665000  
 221.572000   221.800000   222.474000   222.879000   223.156000   223.479000  
 224.316000   224.394000   224.655000   224.698000   225.347000   225.822000  
 225.936000   226.404000   226.645000   227.354000   227.703000   227.976000  
 228.254000   228.514000   228.907000   229.136000   229.386000   230.186000  
 230.466000   231.081000   231.423000   231.704000   232.124000   232.951000  
 233.056000   233.959000   234.419000   234.721000   235.296000   235.699000  
 236.109000   236.378000   236.490000   237.367000   237.910000   238.282000  
 238.481000   238.841000   239.247000   239.555000   239.819000   240.183000  
 240.986000   241.137000   241.572000   241.909000   242.474000   242.581000  
 242.965000   243.877000   244.130000   244.497000   245.185000   245.457000  
 245.650000   245.866000   246.172000   246.707000   247.193000   247.399000  
 247.766000   248.309000   248.908000   249.245000   249.797000   249.955000  
 250.461000   251.188000   251.285000   252.139000   254.364000   254.568000  
 254.818000   255.281000   256.278000   256.332000   256.481000   256.726000  
 256.852000   257.011000   257.862000   258.045000   258.478000   258.946000  
 259.201000   259.737000   259.862000   260.176000   260.531000   260.896000  
 261.275000   262.332000   262.998000   263.099000   263.242000   264.081000  
 264.512000   265.087000   266.079000   266.994000   267.332000   267.561000  
 268.091000   268.454000   268.548000   268.871000   269.271000   269.795000  
 270.030000   270.151000   270.575000   270.961000   271.216000   271.392000  
 271.858000   273.338000   273.557000   274.251000   274.342000   274.544000  
 274.813000   275.304000   275.911000   275.935000   276.933000   277.503000  
 278.840000   279.262000   279.562000   280.277000   280.598000   281.188000  
 281.994000   282.036000   282.377000   283.574000   283.838000   283.954000  
 284.376000   285.118000   285.379000   286.542000   286.559000   287.062000  
 287.422000   287.526000   288.315000   288.334000   288.976000   289.345000  
 289.761000   289.924000   290.086000   290.515000   290.718000   291.281000  
 292.184000   292.296000   292.321000   292.895000   293.149000   293.517000  
 294.274000   294.632000   294.908000   295.038000   295.709000   296.268000  
 297.046000   297.187000   298.029000   298.117000   299.178000   299.592000  
 300.062000   300.459000   300.486000   301.031000   301.353000   301.856000  
 303.269000   303.696000   304.826000   305.187000   305.366000   305.693000  
 306.304000   306.882000   307.452000   309.097000   309.243000   309.612000  
 310.192000   310.333000   310.365000   310.474000   310.605000   310.964000  
 311.237000   312.180000   312.751000   314.426000   314.666000   314.865000  
 315.301000   315.648000   316.042000   316.222000   316.517000   317.264000  
 317.359000   317.970000   318.495000   318.771000   319.015000   319.332000  
 319.480000   320.972000   321.663000   321.886000   322.275000   322.671000  
 322.854000   323.034000   323.217000   323.366000   324.178000   324.409000  
 324.935000   325.224000   326.165000   326.253000   327.216000   327.908000  
 328.053000   328.131000   329.024000   329.369000   329.794000   330.516000  
 331.171000   331.564000   331.921000   332.596000   333.084000   333.439000  
 333.537000   333.973000   334.279000   335.238000   335.902000   336.101000  
 336.507000   336.866000   336.985000   337.722000   337.822000   338.155000  
 338.597000   338.809000   339.089000   339.347000   339.624000   340.736000  
 340.969000   341.045000   341.612000   342.265000   342.544000   344.456000  
 344.584000   345.778000   345.798000   346.141000   346.434000   346.808000  
 348.409000   348.877000   349.426000   349.990000   350.644000   350.943000  
 351.186000   352.242000   353.550000   354.289000   354.885000   355.076000  
 356.058000   356.891000   357.209000   357.687000   358.454000   359.015000  
 359.396000   359.892000   360.176000   360.649000   361.173000   361.216000  
 361.853000   361.942000   362.920000   363.304000   364.217000   364.810000  
 365.086000   365.355000   365.838000   366.704000   367.642000   367.801000  
 368.938000   369.091000   371.048000   372.222000   373.714000   374.030000  
 374.249000   375.462000   376.581000   379.405000   379.469000   379.851000  
 380.977000   382.201000   383.910000   384.094000   384.278000   384.489000  
 384.885000   386.524000   387.334000   388.047000   389.181000   390.167000  
 390.354000   390.688000   391.650000   391.737000   392.520000   392.804000  
 393.141000   394.005000   394.171000   394.545000   395.492000   396.058000  
 396.065000   397.638000   397.762000   398.189000   398.923000   399.729000  
 400.675000   400.895000   400.969000   401.369000   404.496000   406.366000  
 406.573000   407.199000   409.671000   409.707000   410.077000   411.299000  
 411.690000   411.897000   412.054000   412.771000   414.000000   414.922000  
 415.177000   416.764000   416.933000   416.980000   417.517000   417.544000  
 418.270000   418.464000   418.583000   418.944000   419.227000   419.466000  
 420.562000   420.616000   420.681000   421.480000   421.517000   421.749000  
 421.868000   422.243000   422.524000   422.643000   422.746000   423.636000  
 423.875000   424.301000   424.706000   425.138000   425.827000   426.039000  
 426.244000   426.866000   428.883000   429.825000   430.092000   430.096000  
 431.253000   431.721000   432.329000   432.999000   433.372000   433.571000  
 433.709000   434.012000   434.599000   434.747000   435.044000   435.310000  
 436.335000   436.675000   437.081000   438.707000   438.824000   440.025000  
 440.142000   440.824000   441.064000   442.471000   443.249000   443.414000  
 443.575000   444.665000   444.797000   445.539000   446.921000   447.032000  
 447.426000   451.143000   451.161000   452.236000   452.887000   456.668000  
 457.588000   457.835000   459.051000   459.567000   460.096000   460.655000  
 461.054000   462.002000   463.046000   463.336000   463.907000   464.917000  
 465.448000   465.486000   466.932000   467.200000   467.302000   468.404000  
 468.674000   468.938000   469.293000   469.529000   470.794000   471.421000  
 471.884000   472.349000   472.654000   473.069000   473.314000   473.560000  
 474.958000   475.732000   476.236000   476.518000   477.595000   477.911000  
 478.391000   478.861000   479.612000   481.106000   481.271000   481.627000  
 481.917000   482.671000   482.820000   483.016000   484.168000   486.474000  
 486.958000   487.421000   487.578000   487.737000   488.381000   488.546000  
 489.452000   489.766000   490.186000   490.614000   490.730000   492.510000  
 493.122000   494.238000   495.182000   496.468000   496.941000   497.271000  
 498.704000   499.330000   499.486000   500.241000   502.249000   502.473000  
 502.776000   504.190000   504.391000   505.113000   506.423000   506.561000  
 506.844000   507.042000   507.952000   508.030000   508.332000   510.066000  
 510.240000   510.846000   510.986000   512.297000   516.334000   516.564000  
 516.774000   516.904000   517.960000   518.490000   518.535000   520.963000  
 521.449000   522.084000   522.286000   522.388000   522.654000   524.518000  
 524.787000   525.260000   525.368000   526.009000   527.434000   528.264000  
 528.607000   530.549000   531.529000   532.187000   532.486000   533.844000  
 534.253000   534.658000   534.895000   535.767000   536.746000   538.167000  
 538.349000   538.427000   539.047000   540.581000   542.667000   542.931000  
 543.387000   543.574000   543.821000   545.944000   546.639000   547.521000  
 548.214000   548.393000   549.462000   551.952000   554.709000   555.084000  
 556.571000   556.645000   558.572000   558.639000   558.857000   559.609000  
 562.689000   562.861000   563.831000   565.337000   567.648000   568.442000  
 569.020000   571.711000   573.109000   575.031000   576.830000   577.688000  
 578.651000   580.194000   580.465000   580.891000   582.029000   583.558000  
 586.230000   588.117000   589.965000   591.021000   591.739000   591.827000  
 592.021000   595.105000   596.973000   598.892000   603.106000   604.308000  
 605.701000   605.819000   607.185000   608.335000   608.543000   609.217000  
 610.280000   614.198000   614.827000   616.087000   616.421000   618.127000  
 618.598000   621.178000   621.751000   621.907000   622.531000   624.131000  
 624.737000   625.339000   626.140000   627.150000   628.357000   628.617000  
 629.037000   629.296000   630.039000   630.363000   630.945000   631.089000  
 631.558000   632.118000   632.892000   633.001000   634.090000   634.187000  
 635.783000   635.849000   636.139000   636.356000   636.698000   637.714000  
 637.952000   638.158000   638.760000   640.218000   640.330000   640.902000  
 641.143000   641.343000   641.443000   645.244000   645.277000   645.474000  
 645.643000   646.123000   646.821000   648.320000   648.388000   648.900000  
 649.538000   649.989000   650.464000   651.418000   651.642000   651.706000  
 651.989000   653.969000   654.357000   654.938000   655.249000   656.431000  
 657.133000   657.385000   658.955000   659.009000   659.095000   659.281000  
 659.656000   659.691000   660.464000   660.492000   660.979000   661.962000  
 662.964000   663.257000   664.745000   665.028000   665.548000   665.618000  
 665.797000   666.096000   666.785000   668.392000   670.653000   671.220000  
 671.442000   672.950000   673.384000   673.902000   674.169000   674.877000  
 675.715000   675.982000   676.529000   677.001000   677.090000   677.216000  
 677.670000   677.911000   678.616000   679.019000   679.560000   680.027000  
 680.203000   680.404000   680.666000   681.068000   681.258000   681.426000  
 683.082000   683.298000   683.548000   683.710000   683.967000   684.257000  
 685.904000   686.044000   686.896000   687.348000   688.245000   688.724000  
 691.784000   692.185000   693.268000   694.020000   694.665000   695.104000  
 696.940000   697.433000   697.864000   698.304000   699.066000   699.067000  
 699.707000   702.605000   704.191000   704.330000   704.421000   709.133000  
 709.440000   709.798000   710.519000   710.644000   711.356000   711.360000  
 712.392000   712.406000   713.234000   714.015000   716.781000   716.806000  
 718.336000   719.257000   719.540000   719.708000   720.377000   720.958000  
 721.882000   722.534000   723.880000   723.933000   724.216000   724.518000  
 724.649000   724.782000   725.594000   726.700000   727.266000   727.817000  
 727.827000   728.084000   728.676000   729.415000   730.387000   730.467000  
 732.325000   733.318000   733.858000   734.106000   734.665000   734.849000  
 735.490000   735.827000   736.023000   737.250000   737.596000   737.676000  
 738.799000   738.837000   739.711000   740.210000   741.262000   741.502000  
 741.728000   741.874000   741.930000   742.075000   742.664000   744.901000  
 744.930000   745.787000   746.708000   746.798000   747.548000   749.232000  
 749.283000   750.358000   750.929000   751.396000   751.738000   751.755000  
 752.892000   752.982000   753.577000   754.863000   756.087000   756.721000  
 759.400000   759.800000   760.669000   761.295000   761.555000   761.928000  
 761.998000   762.123000   762.478000   762.506000   762.806000   763.321000  
 763.337000   764.136000   765.044000   765.243000   765.896000   765.914000  
 766.131000   766.244000   767.623000   767.719000   768.208000   768.364000  
 768.527000   768.630000   770.100000   770.305000   770.723000   770.958000  
 771.113000   771.337000   771.418000   771.783000   772.188000   772.366000  
 772.709000   773.268000   773.534000   775.081000   775.710000   776.387000  
 776.398000   777.012000   777.152000   777.232000   777.518000   778.321000  
 778.501000   778.557000   780.126000   780.339000   780.745000   781.337000  
 781.712000   782.149000   783.048000   783.904000   784.011000   784.342000  
 784.411000   784.822000   785.276000   785.813000   786.686000   786.862000  
 787.052000   787.137000   787.297000   787.948000   788.137000   788.655000  
 788.996000   789.120000   789.504000   789.838000   790.443000   790.560000  
 790.874000   791.011000   791.230000   791.694000   791.748000   791.919000  
 792.271000   792.391000   792.591000   793.297000   793.485000   793.651000  
 794.486000   795.248000   795.336000   796.223000   796.828000   797.056000  
 797.113000   798.272000   798.434000   798.910000   799.053000   799.063000  
 799.185000   799.591000   799.731000   800.097000   800.831000   800.909000  
 801.391000   801.574000   801.800000   802.187000   802.835000   803.217000  
 803.396000   803.719000   804.129000   804.509000   804.893000   805.994000  
 806.294000   806.784000   806.794000   808.021000   808.133000   808.687000  
 809.049000   809.241000   809.497000   810.183000   810.241000   810.967000  
 811.158000   811.244000   811.327000   811.439000   812.628000   813.332000  
 813.636000   813.658000   814.657000   814.926000   815.846000   816.451000  
 816.534000   816.714000   818.110000   818.376000   820.596000   820.815000  
 821.673000   821.825000   822.012000   822.226000   822.888000   823.163000  
 823.207000   823.308000   823.514000   823.974000   824.319000   825.002000  
 826.152000   826.584000   826.766000   827.072000   827.510000   828.053000  
 828.127000   828.355000   828.974000   829.165000   829.297000   829.548000  
 829.585000   830.233000   831.238000   831.893000   832.071000   832.465000  
 833.865000   834.081000   834.154000   834.577000   835.066000   835.207000  
 836.373000   836.825000   837.378000   837.629000   838.099000   838.244000  
 838.749000   839.057000   839.604000   839.944000   841.078000   841.203000  
 841.490000   841.767000   841.828000   843.007000   843.992000   844.471000  
 845.641000   845.836000   846.596000   847.011000   847.135000   848.248000  
 848.925000   849.010000   849.206000   849.725000   850.161000   851.058000  
 851.321000   851.488000   852.996000   853.184000   854.933000   854.948000  
 855.483000   855.950000   856.369000   856.408000   856.484000   856.498000  
 857.250000   857.429000   858.800000   859.190000   859.341000   859.794000  
 861.387000   862.439000   862.728000   864.554000   865.560000   866.876000  
 868.784000   869.140000   869.336000   869.642000   870.055000   870.269000  
 870.873000   870.908000   872.154000   873.111000   873.257000   874.271000  
 874.469000   874.862000   875.247000   875.754000   875.812000   876.237000  
 876.780000   877.957000   878.702000   879.268000   879.963000   880.455000  
 882.227000   882.283000   883.185000   883.345000   884.018000   884.024000  
 884.590000   884.702000   884.852000   885.842000   886.841000   887.176000  
 889.198000   889.437000   889.728000   890.210000   890.729000   891.275000  
 891.450000   892.310000   892.834000   893.210000   893.692000   893.862000  
 894.487000   894.556000   895.045000   895.436000   896.078000   896.334000  
 896.582000   897.007000   897.951000   898.463000   898.500000   898.711000  
 899.461000   899.734000   899.902000   901.088000   901.285000   902.821000  
 903.085000   903.536000   904.189000   904.538000   904.980000   905.059000  
 906.528000   907.773000   908.971000   909.245000   909.285000   910.453000  
 910.545000   910.687000   912.480000   914.214000   914.292000   914.472000  
 916.461000   916.971000   916.981000   917.161000   917.221000   917.596000  
 918.143000   918.931000   919.248000   919.787000   919.796000   919.873000  
 920.054000   920.500000   921.791000   922.143000   922.733000   922.839000  
 923.996000   924.069000   924.892000   925.491000   925.885000   926.019000  
 926.202000   927.137000   927.171000   927.344000   927.470000   928.146000  
 928.635000   929.463000   929.609000   929.916000   930.111000   930.787000  
 931.139000   931.378000   932.097000   932.307000   932.378000   932.714000  
 933.132000   933.220000   933.570000   933.906000   933.988000   934.574000  
 936.108000   936.538000   936.570000   936.633000   936.775000   936.845000  
 937.264000   938.105000   938.517000   939.223000   940.196000   940.442000  
 940.813000   940.847000   941.032000   941.177000   941.265000   941.411000  
 942.545000   942.764000   943.051000   943.110000   943.437000   943.776000  
 943.816000   944.129000   944.257000   945.188000   945.199000   945.467000  
 945.760000   945.893000   945.927000   946.134000   946.719000   946.895000  
 947.330000   947.463000   947.911000   948.000000   948.335000   948.462000  
 948.491000   948.845000   949.175000   949.535000   949.696000   949.725000  
 949.991000   950.404000   950.423000   950.620000   950.749000   950.846000  
 950.917000   951.075000   951.587000   951.651000   951.706000   951.867000  
 952.637000   953.381000   953.495000   953.666000   954.016000   954.474000  
 954.811000   955.043000   955.326000   955.564000   955.833000   956.071000  
 956.426000   956.641000   956.705000   956.765000   957.013000   957.138000  
 957.311000   957.422000   957.477000   957.569000   957.621000   957.717000  
 957.875000   958.017000   958.946000   959.036000   959.571000   959.637000  
 959.651000   959.841000   959.868000   959.949000   960.689000   961.168000  
 961.344000   961.991000   962.155000   962.675000   962.820000   962.888000  
 963.053000   963.245000   963.415000   963.513000   964.045000   964.573000  
 964.823000   964.929000   965.088000   965.653000   967.393000   967.935000  
 968.133000   968.401000   968.427000   968.541000   969.141000   969.316000  
 969.820000   969.941000   970.593000   971.090000   971.490000   971.925000  
 972.166000   972.244000   972.329000   973.018000   973.583000   974.139000  
 974.995000   975.420000   975.537000   975.708000   976.312000   977.007000  
 977.526000   977.696000   977.888000   977.931000   978.094000   978.383000  
 978.394000   978.748000   979.253000   979.620000   980.139000   980.916000  
 981.052000   981.215000   981.779000   982.737000   983.243000   983.513000  
 983.859000   984.065000   984.307000   984.358000   984.529000   985.229000  
 985.372000   986.335000   987.004000   987.531000   987.723000   988.059000  
 988.384000   988.932000   989.090000   989.510000   990.280000   990.296000  
 990.824000   991.388000   991.695000   991.728000   991.836000   992.233000  
 992.864000   993.006000   995.029000   995.107000   995.611000   996.629000  
 998.012000   998.634000   998.949000   998.958000  1000.534000  1002.047000  
1002.134000  1002.529000  1003.995000  1004.735000  1005.265000  1005.444000  
1006.420000  1006.931000  1007.809000  1009.743000  1010.668000  1011.301000  
1012.550000  1012.685000  1013.131000  1013.651000  1013.844000  1014.008000  
1014.763000  1014.822000  1015.190000  1015.200000  1015.594000  1016.093000  
1016.187000  1016.230000  1016.721000  1017.436000  1017.482000  1018.599000  
1019.020000  1019.852000  1019.948000  1020.618000  1021.401000  1021.862000  
1022.072000  1022.225000  1022.337000  1022.416000  1022.691000  1023.350000  
1023.444000  1023.523000  1023.668000  1023.961000  1024.333000  1024.961000  
1025.372000  1025.624000  1026.065000  1026.268000  1026.378000  1027.055000  
1027.057000  1027.504000  1027.930000  1028.636000  1028.836000  1028.839000  
1029.179000  1029.867000  1029.930000  1030.082000  1030.223000  1030.328000  
1030.423000  1030.596000  1030.649000  1030.935000  1031.269000  1031.894000  
1032.228000  1033.373000  1033.434000  1033.703000  1033.825000  1034.854000  
1034.991000  1035.454000  1035.495000  1035.575000  1035.580000  1035.972000  
1036.367000  1036.632000  1036.662000  1037.359000  1037.638000  1037.897000  
1038.178000  1038.252000  1038.678000  1038.797000  1039.258000  1039.273000  
1039.425000  1039.486000  1039.692000  1040.063000  1040.341000  1040.459000  
1041.433000  1041.695000  1041.953000  1042.262000  1042.763000  1042.829000  
1042.900000  1043.415000  1044.147000  1044.352000  1044.756000  1045.361000  
1045.490000  1045.751000  1045.958000  1045.977000  1046.454000  1046.951000  
1047.467000  1047.604000  1048.035000  1049.486000  1050.296000  1051.051000  
1051.607000  1052.896000  1053.138000  1053.618000  1053.946000  1054.096000  
1054.562000  1054.892000  1055.607000  1056.448000  1056.907000  1057.061000  
1057.795000  1058.239000  1058.395000  1058.841000  1058.853000  1058.981000  
1059.363000  1059.840000  1060.243000  1060.256000  1060.300000  1060.672000  
1061.384000  1061.469000  1061.697000  1062.145000  1062.205000  1062.310000  
1062.404000  1062.605000  1063.345000  1063.456000  1063.531000  1064.718000  
1064.722000  1065.307000  1065.515000  1065.938000  1066.232000  1066.923000  
1067.232000  1067.489000  1068.015000  1068.043000  1069.177000  1069.331000  
1069.892000  1070.327000  1070.376000  1070.505000  1070.918000  1071.625000  
1072.569000  1072.870000  1072.939000  1073.087000  1074.445000  1074.448000  
1074.840000  1075.019000  1075.599000  1075.623000  1076.156000  1076.160000  
1076.255000  1076.302000  1076.616000  1077.163000  1077.187000  1077.931000  
1077.972000  1078.298000  1079.212000  1080.106000  1080.459000  1080.803000  
1081.548000  1081.991000  1084.199000  1084.278000  1084.510000  1085.976000  
1086.258000  1086.493000  1086.556000  1087.279000  1087.379000  1087.943000  
1088.322000  1088.716000  1089.124000  1090.336000  1090.426000  1090.647000  
1091.173000  1091.716000  1091.736000  1092.212000  1092.367000  1092.378000  
1092.919000  1093.134000  1093.883000  1094.476000  1094.859000  1095.727000  
1096.068000  1096.711000  1096.787000  1097.168000  1097.482000  1097.650000  
1097.915000  1098.701000  1098.804000  1099.313000  1099.435000  1099.577000  
1100.077000  1100.167000  1100.577000  1100.619000  1101.052000  1101.287000  
1101.963000  1102.388000  1102.656000  1103.322000  1103.584000  1103.781000  
1104.007000  1104.284000  1104.635000  1105.383000  1105.786000  1106.019000  
1106.083000  1106.586000  1107.169000  1107.298000  1107.345000  1107.470000  
1107.738000  1108.418000  1109.107000  1109.215000  1109.275000  1109.575000  
1110.671000  1111.142000  1111.942000  1113.152000  1113.266000  1113.345000  
1113.812000  1113.865000  1114.813000  1115.157000  1115.827000  1116.009000  
1116.158000  1116.190000  1117.209000  1117.782000  1118.339000  1118.654000  
1119.344000  1119.635000  1119.831000  1120.355000  1120.610000  1121.608000  
1121.800000  1122.063000  1123.193000  1123.255000  1123.905000  1124.540000  
1124.657000  1124.977000  1125.576000  1125.775000  1126.096000  1126.286000  
1126.417000  1126.670000  1126.717000  1126.826000  1126.918000  1127.670000  
1127.829000  1128.028000  1128.352000  1128.565000  1128.566000  1129.453000  
1129.984000  1130.045000  1130.127000  1130.148000  1130.371000  1130.784000  
1130.826000  1132.442000  1132.836000  1133.170000  1133.379000  1133.863000  
1134.366000  1134.549000  1134.792000  1135.218000  1137.660000  1138.740000  
1139.335000  1140.033000  1140.407000  1140.626000  1141.653000  1142.196000  
1144.880000  1145.212000  1146.453000  1146.829000  1147.029000  1147.185000  
1147.608000  1147.726000  1148.317000  1148.685000  1148.754000  1149.111000  
1149.421000  1149.461000  1149.598000  1149.647000  1150.889000  1152.152000  
1152.676000  1152.676000  1152.822000  1153.454000  1154.520000  1155.169000  
1155.387000  1155.529000  1155.531000  1155.932000  1156.737000  1157.086000  
1157.156000  1157.615000  1158.956000  1159.369000  1159.813000  1160.011000  
1163.991000  1166.515000  1167.083000  1167.195000  1167.759000  1168.869000  
1169.497000  1170.656000  1171.680000  1172.044000  1173.253000  1173.589000  
1173.966000  1174.218000  1174.710000  1175.833000  1176.061000  1176.527000  
1178.696000  1179.287000  1181.490000  1181.870000  1182.327000  1182.330000  
1183.193000  1183.741000  1184.034000  1184.557000  1185.408000  1185.771000  
1186.267000  1186.506000  1186.597000  1186.895000  1187.848000  1189.764000  
1190.371000  1190.710000  1191.870000  1192.173000  1192.302000  1192.667000  
1192.960000  1193.092000  1193.761000  1193.928000  1194.083000  1195.712000  
1196.548000  1196.857000  1197.041000  1197.965000  1198.058000  1198.118000  
1199.065000  1199.546000  1200.623000  1200.740000  1201.135000  1201.827000  
1202.722000  1202.860000  1203.037000  1203.721000  1203.833000  1204.377000  
1204.625000  1205.398000  1206.246000  1206.329000  1207.352000  1208.613000  
1209.214000  1211.127000  1211.323000  1211.415000  1211.617000  1211.837000  
1212.271000  1212.937000  1213.029000  1213.078000  1213.532000  1213.747000  
1214.353000  1215.787000  1215.809000  1216.060000  1216.187000  1216.412000  
1216.441000  1216.525000  1216.592000  1216.910000  1217.157000  1217.218000  
1217.343000  1217.415000  1219.169000  1219.296000  1219.296000  1219.359000  
1219.427000  1220.019000  1220.069000  1220.406000  1221.115000  1221.172000  
1221.433000  1221.947000  1222.206000  1222.960000  1222.972000  1223.012000  
1224.097000  1224.466000  1224.683000  1224.843000  1225.147000  1225.213000  
1225.735000  1226.314000  1226.335000  1227.528000  1227.626000  1227.855000  
1228.295000  1228.736000  1228.894000  1229.005000  1229.484000  1229.495000  
1230.046000  1230.562000  1232.193000  1232.544000  1233.915000  1233.922000  
1234.427000  1234.632000  1234.729000  1235.571000  1236.065000  1236.428000  
1236.767000  1236.906000  1237.085000  1237.946000  1238.294000  1238.569000  
1238.620000  1240.152000  1240.895000  1241.183000  1241.224000  1241.430000  
1241.563000  1241.594000  1242.041000  1242.215000  1242.525000  1243.103000  
1243.709000  1243.792000  1243.911000  1243.933000  1244.579000  1244.988000  
1245.755000  1246.234000  1246.342000  1246.386000  1246.859000  1246.959000  
1247.152000  1247.192000  1247.577000  1247.923000  1248.426000  1248.474000  
1248.860000  1249.536000  1249.778000  1250.005000  1250.596000  1251.439000  
1251.762000  1252.160000  1252.340000  1252.348000  1252.363000  1253.039000  
1253.493000  1253.542000  1253.998000  1254.324000  1255.466000  1255.599000  
1256.187000  1256.298000  1256.441000  1257.026000  1257.966000  1258.876000  
1259.512000  1259.925000  1260.070000  1260.124000  1260.160000  1260.710000  
1260.907000  1261.588000  1261.832000  1261.848000  1262.292000  1262.431000  
1262.725000  1262.771000  1263.498000  1265.018000  1265.031000  1265.300000  
1265.945000  1267.966000  1269.076000  1269.210000  1271.502000  1271.537000  
1272.669000  1273.975000  1275.687000  1277.979000  1279.023000  1281.540000  
1282.485000  1282.836000  1284.073000  1285.225000  1285.295000  1285.572000  
1285.748000  1287.183000  1287.687000  1288.808000  1288.815000  1289.058000  
1289.169000  1289.319000  1290.176000  1291.684000  1292.459000  1292.903000  
1293.190000  1294.141000  1294.766000  1294.825000  1294.883000  1294.997000  
1295.181000  1295.814000  1296.989000  1297.204000  1297.338000  1297.653000  
1297.692000  1297.951000  1298.760000  1299.116000  1299.245000  1299.312000  
1299.625000  1299.846000  1299.926000  1299.934000  1300.123000  1300.764000  
1301.106000  1301.412000  1301.486000  1301.790000  1302.032000  1303.297000  
1303.813000  1304.287000  1304.468000  1305.345000  1305.710000  1306.464000  
1306.478000  1306.977000  1306.989000  1307.088000  1307.107000  1308.157000  
1309.114000  1309.264000  1309.557000  1309.685000  1309.867000  1309.921000  
1309.937000  1310.238000  1310.573000  1311.030000  1311.069000  1311.588000  
1311.600000  1312.138000  1313.533000  1313.575000  1313.658000  1313.865000  
1313.995000  1314.003000  1314.803000  1315.114000  1316.590000  1316.836000  
1317.320000  1317.647000  1318.848000  1318.979000  1319.226000  1319.561000  
1319.912000  1320.062000  1320.382000  1320.812000  1321.357000  1322.026000  
1322.029000  1322.421000  1322.440000  1322.567000  1323.157000  1323.476000  
1324.058000  1324.273000  1325.613000  1325.927000  1326.506000  1327.149000  
1327.251000  1327.944000  1328.132000  1328.846000  1329.191000  1331.265000  
1331.435000  1331.902000  1331.927000  1332.131000  1332.726000  1334.019000  
1334.135000  1334.769000  1335.322000  1336.244000  1336.462000  1336.888000  
1337.198000  1337.445000  1337.451000  1337.808000  1337.940000  1338.923000  
1339.040000  1339.604000  1339.806000  1340.026000  1340.494000  1340.908000  
1341.064000  1341.387000  1341.644000  1342.044000  1342.515000  1342.631000  
1343.824000  1345.308000  1345.782000  1346.265000  1348.021000  1349.645000  
1350.184000  1350.374000  1350.400000  1351.184000  1351.617000  1351.625000  
1352.384000  1352.470000  1353.182000  1353.596000  1353.713000  1355.190000  
1355.457000  1356.189000  1356.940000  1357.573000  1357.808000  1358.120000  
1358.400000  1358.541000  1358.833000  1359.499000  1359.568000  1359.647000  
1360.565000  1360.792000  1361.641000  1361.825000  1362.514000  1362.570000  
1362.942000  1363.107000  1363.534000  1363.930000  1364.333000  1366.104000  
1366.581000  1367.057000  1367.354000  1367.724000  1367.796000  1368.293000  
1368.898000  1368.925000  1369.004000  1369.783000  1370.020000  1370.311000  
1370.631000  1371.356000  1371.370000  1371.577000  1371.596000  1371.876000  
1372.040000  1372.110000  1372.580000  1373.287000  1373.665000  1373.690000  
1373.813000  1373.945000  1375.263000  1375.941000  1375.977000  1378.004000  
1378.166000  1379.296000  1379.448000  1380.024000  1380.129000  1380.295000  
1381.611000  1381.958000  1385.406000  1385.477000  1386.002000  1386.613000  
1387.359000  1389.084000  1390.413000  1390.530000  1390.714000  1390.909000  
1391.066000  1391.252000  1391.789000  1393.179000  1394.590000  1394.988000  
1395.040000  1395.133000  1395.785000  1396.062000  1396.534000  1396.572000  
1397.144000  1397.471000  1397.911000  1397.934000  1399.019000  1399.126000  
1399.520000  1399.646000  1399.744000  1399.814000  1399.855000  1400.055000  
1400.323000  1400.675000  1400.742000  1400.871000  1401.309000  1401.565000  
1401.583000  1401.686000  1402.122000  1402.152000  1402.268000  1402.334000  
1402.533000  1403.551000  1404.116000  1404.124000  1404.392000  1404.401000  
1404.723000  1404.881000  1404.918000  1405.083000  1405.179000  1405.498000  
1405.634000  1406.268000  1406.356000  1406.853000  1407.118000  1407.249000  
1407.467000  1407.472000  1407.511000  1407.825000  1408.092000  1408.170000  
1408.206000  1408.429000  1408.623000  1409.041000  1409.729000  1410.072000  
1410.406000  1410.533000  1410.799000  1410.951000  1411.049000  1411.074000  
1411.436000  1411.643000  1411.694000  1412.296000  1412.376000  1412.614000  
1412.819000  1413.190000  1413.413000  1413.607000  1414.062000  1414.064000  
1414.240000  1414.247000  1414.279000  1414.437000  1414.729000  1414.854000  
1414.921000  1414.972000  1415.073000  1415.351000  1415.394000  1415.461000  
1415.751000  1416.048000  1416.131000  1416.349000  1416.465000  1417.182000  
1417.208000  1417.292000  1417.601000  1417.770000  1417.960000  1418.395000  
1418.612000  1418.855000  1418.924000  1419.029000  1419.327000  1419.707000  
1419.806000  1419.934000  1419.984000  1420.017000  1420.046000  1420.158000  
1420.346000  1420.425000  1420.689000  1421.121000  1421.393000  1421.525000  
1421.611000  1421.990000  1422.226000  1422.471000  1422.551000  1423.036000  
1423.076000  1423.103000  1423.137000  1423.172000  1423.324000  1423.356000  
1423.537000  1423.797000  1423.913000  1424.064000  1424.126000  1424.434000  
1424.515000  1424.521000  1424.545000  1424.559000  1424.942000  1425.131000  
1425.344000  1425.524000  1425.633000  1425.665000  1425.685000  1426.058000  
1426.075000  1426.236000  1426.347000  1426.593000  1427.077000  1427.203000  
1427.274000  1427.373000  1427.521000  1427.583000  1427.618000  1427.766000  
1428.199000  1428.230000  1428.330000  1428.529000  1428.810000  1428.921000  
1428.998000  1429.156000  1429.391000  1429.556000  1429.757000  1429.878000  
1430.032000  1430.132000  1430.155000  1430.166000  1430.560000  1430.740000  
1430.760000  1430.803000  1430.811000  1430.844000  1430.911000  1431.037000  
1431.148000  1431.218000  1431.319000  1431.334000  1431.558000  1431.721000  
1431.869000  1431.902000  1432.088000  1432.151000  1432.173000  1432.218000  
1432.288000  1432.504000  1432.558000  1432.622000  1432.735000  1432.960000  
1433.146000  1433.190000  1433.323000  1433.379000  1433.439000  1433.477000  
1433.521000  1433.592000  1433.784000  1433.786000  1433.958000  1434.011000  
1434.043000  1434.152000  1434.207000  1434.240000  1434.248000  1434.389000  
1434.681000  1435.048000  1435.063000  1435.072000  1435.113000  1435.318000  
1435.385000  1435.397000  1435.476000  1435.652000  1435.744000  1435.874000  
1436.173000  1436.285000  1436.286000  1436.341000  1436.438000  1436.488000  
1436.693000  1436.909000  1436.950000  1437.051000  1437.305000  1437.357000  
1437.640000  1437.642000  1437.824000  1438.033000  1438.061000  1438.080000  
1438.104000  1438.250000  1438.550000  1438.559000  1438.643000  1438.799000  
1439.167000  1439.289000  1439.379000  1439.397000  1439.435000  1439.463000  
1439.489000  1439.505000  1439.622000  1439.760000  1439.814000  1439.857000  
1440.028000  1440.161000  1440.212000  1440.240000  1440.392000  1440.521000  
1440.685000  1440.960000  1441.015000  1441.069000  1441.378000  1441.424000  
1441.609000  1441.641000  1441.824000  1442.255000  1442.460000  1442.852000  
1442.971000  1443.037000  1443.046000  1443.407000  1443.428000  1443.580000  
1443.853000  1443.956000  1444.211000  1444.231000  1444.278000  1444.287000  
1444.480000  1444.677000  1444.971000  1445.191000  1445.798000  1445.987000  
1446.156000  1446.653000  1446.717000  1447.097000  1447.167000  1447.475000  
1447.948000  1448.177000  1448.264000  1448.825000  1449.029000  1449.673000  
1449.914000  1449.942000  1450.001000  1450.277000  1450.657000  1450.971000  
1451.520000  1451.768000  1451.850000  1451.866000  1452.688000  1452.800000  
1453.107000  1453.389000  1453.777000  1453.899000  1453.980000  1454.064000  
1454.394000  1454.595000  1455.254000  1456.564000  1456.588000  1456.650000  
1457.145000  1457.868000  1457.881000  1458.408000  1458.862000  1459.043000  
1459.236000  1459.264000  1459.522000  1459.590000  1459.775000  1460.027000  
1460.225000  1460.340000  1460.527000  1460.588000  1460.963000  1462.159000  
1462.544000  1462.630000  1463.010000  1464.197000  1464.454000  1464.627000  
1464.838000  1465.084000  1465.348000  1465.628000  1465.726000  1465.968000  
1466.103000  1466.980000  1467.208000  1467.398000  1468.234000  1468.740000  
1469.271000  1469.425000  1470.153000  1471.040000  1471.492000  1471.873000  
1473.601000  1473.734000  1473.879000  1474.141000  1474.466000  1474.724000  
1475.412000  1476.556000  1476.740000  1476.997000  1477.762000  1478.095000  
1478.219000  1478.489000  1478.692000  1479.573000  1479.609000  1480.659000  
1481.691000  1482.139000  1483.472000  1483.600000  1484.016000  1484.450000  
1484.598000  1484.807000  1484.816000  1484.857000  1485.150000  1485.560000  
1485.625000  1486.571000  1486.802000  1487.760000  1488.388000  1489.004000  
1489.448000  1489.486000  1489.962000  1490.810000  1491.329000  1491.940000  
1492.371000  1492.758000  1493.174000  1493.534000  1493.709000  1494.320000  
1494.421000  1495.042000  1495.082000  1495.273000  1496.409000  1497.435000  
1499.033000  1499.282000  1500.419000  1503.981000  1504.974000  1507.073000  
1507.085000  1508.311000  1508.362000  1508.607000  1508.996000  1509.679000  
1510.445000  1510.504000  1511.028000  1511.859000  1513.491000  1516.114000  
1518.275000  1520.635000  1523.536000  1523.901000  1526.286000  1528.101000  
1531.513000  1531.546000  1532.420000  1533.390000  1533.501000  1533.703000  
1534.835000  1536.276000  1536.567000  1537.708000  1538.685000  1539.059000  
1541.754000  1542.383000  1542.901000  1547.233000  1552.940000  1556.160000  
1558.662000  1559.115000  1560.648000  1562.236000  1563.243000  1563.558000  
1564.163000  1566.342000  1567.696000  1567.959000  1568.379000  1569.161000  
1569.191000  1569.893000  1570.164000  1570.410000  1570.690000  1571.095000  
1571.226000  1571.673000  1571.982000  1572.904000  1573.014000  1573.054000  
1573.729000  1574.867000  1575.092000  1575.288000  1576.681000  1576.723000  
1576.995000  1577.221000  1577.362000  1578.351000  1578.958000  1579.084000  
1580.885000  1581.275000  1582.879000  1583.219000  1583.987000  1584.401000  
1584.827000  1584.878000  1585.370000  1585.609000  1586.265000  1586.369000  
1586.440000  1587.011000  1587.102000  1587.463000  1587.644000  1587.713000  
1587.859000  1587.913000  1588.217000  1588.798000  1588.850000  1589.291000  
1589.356000  1589.995000  1590.313000  1590.333000  1590.699000  1590.941000  
1591.454000  1591.693000  1591.780000  1592.025000  1592.029000  1592.364000  
1592.597000  1592.657000  1592.754000  1592.840000  1593.257000  1593.739000  
1594.182000  1594.463000  1594.556000  1594.685000  1594.845000  1595.822000  
1596.122000  1597.312000  1597.339000  1598.383000  1598.932000  1599.461000  
1601.778000  1601.854000  1602.998000  1603.102000  1604.555000  1604.790000  
1605.396000  1605.749000  1605.752000  1605.818000  1605.837000  1607.263000  
1607.354000  1608.247000  1608.533000  1609.267000  1609.832000  1617.186000  
1618.435000  1619.080000  1620.355000  1620.433000  1622.339000  1622.634000  
1625.019000  1626.167000  1626.537000  1628.590000  1629.461000  1629.808000  
1630.500000  1631.436000  1632.402000  1632.416000  1633.761000  1634.649000  
1635.797000  1636.954000  1638.250000  1640.396000  1644.217000  1644.825000  
1645.281000  1651.207000  1655.839000  1656.832000  1658.635000  1659.348000  
1671.033000  1673.708000  1674.305000  1674.810000  1675.103000  1675.645000  
1676.548000  1677.317000  1677.875000  1678.870000  1678.875000  1679.218000  
1679.486000  1679.908000  1680.269000  1681.407000  1683.659000  1685.662000  
1685.996000  1686.510000  1691.536000  1691.542000  1691.905000  1692.163000  
1692.916000  1693.195000  1693.280000  1693.854000  1694.485000  1694.626000  
1694.634000  1694.906000  1695.034000  1695.461000  1695.489000  1695.535000  
1695.821000  1696.151000  1696.194000  1696.262000  1696.321000  1696.432000  
1697.163000  1697.251000  1697.319000  1697.591000  1697.656000  1697.705000  
1697.834000  1697.851000  1698.157000  1698.307000  1698.475000  1698.493000  
1698.510000  1698.639000  1698.891000  1699.097000  1699.170000  1699.278000  
1699.527000  1699.618000  1699.818000  1699.862000  1699.947000  1700.064000  
1700.369000  1700.629000  1700.794000  1701.130000  1701.234000  1701.668000  
1702.481000  1702.766000  1703.016000  1703.130000  1703.496000  1703.757000  
1704.089000  1704.481000  1705.046000  1705.215000  1705.788000  1706.296000  
1706.933000  1707.307000  1713.871000  1716.623000  1717.262000  1754.939000  
1756.019000  1758.453000  1768.782000  2608.999000  2850.245000  2850.755000  
2852.120000  2852.474000  2852.970000  2853.092000  2853.258000  2854.069000  
2854.946000  2855.028000  2855.227000  2855.303000  2855.688000  2855.935000  
2856.075000  2856.206000  2856.291000  2856.439000  2856.563000  2856.732000  
2856.766000  2856.818000  2857.142000  2858.001000  2858.497000  2858.516000  
2858.673000  2858.886000  2859.006000  2859.042000  2859.179000  2859.573000  
2860.379000  2860.958000  2861.176000  2863.183000  2863.780000  2865.928000  
2867.339000  2870.366000  2870.389000  2881.277000  2885.959000  2887.123000  
2887.880000  2888.053000  2888.305000  2888.791000  2889.739000  2889.922000  
2890.814000  2891.437000  2892.089000  2892.269000  2892.375000  2892.433000  
2892.751000  2892.792000  2892.942000  2893.132000  2893.418000  2893.624000  
2894.209000  2894.398000  2894.635000  2894.776000  2895.014000  2895.196000  
2895.343000  2895.585000  2895.777000  2896.139000  2896.180000  2896.406000  
2896.495000  2897.044000  2897.072000  2897.245000  2897.334000  2897.721000  
2897.846000  2898.103000  2898.364000  2898.567000  2898.950000  2899.410000  
2899.545000  2899.691000  2899.706000  2899.755000  2899.767000  2899.905000  
2900.058000  2900.181000  2900.256000  2900.502000  2900.550000  2900.632000  
2900.713000  2900.797000  2900.827000  2900.952000  2900.955000  2900.977000  
2901.087000  2901.091000  2901.310000  2901.360000  2901.531000  2901.711000  
2901.926000  2902.051000  2902.107000  2902.302000  2902.370000  2902.392000  
2902.458000  2902.582000  2902.922000  2902.926000  2903.108000  2903.187000  
2903.265000  2903.403000  2903.477000  2903.574000  2903.632000  2903.673000  
2904.084000  2904.124000  2904.261000  2904.295000  2904.303000  2904.373000  
2904.491000  2904.570000  2904.649000  2904.736000  2904.765000  2904.957000  
2905.203000  2905.304000  2905.337000  2905.581000  2905.657000  2905.685000  
2905.752000  2905.760000  2905.766000  2905.788000  2905.879000  2905.951000  
2905.971000  2906.003000  2906.052000  2906.074000  2906.087000  2906.102000  
2906.419000  2906.428000  2906.546000  2906.552000  2906.608000  2906.699000  
2906.793000  2906.797000  2906.829000  2906.930000  2907.152000  2907.241000  
2907.249000  2907.275000  2907.319000  2907.324000  2907.360000  2907.371000  
2907.581000  2907.626000  2907.663000  2907.672000  2907.716000  2907.776000  
2907.785000  2907.791000  2907.800000  2908.007000  2908.054000  2908.150000  
2908.165000  2908.188000  2908.311000  2908.374000  2908.388000  2908.446000  
2908.504000  2908.611000  2908.636000  2908.688000  2908.745000  2908.757000  
2908.850000  2908.863000  2909.039000  2909.074000  2909.082000  2909.188000  
2909.249000  2909.479000  2909.491000  2909.515000  2909.582000  2909.633000  
2909.645000  2909.649000  2909.758000  2909.796000  2910.037000  2910.062000  
2910.205000  2910.259000  2910.290000  2910.414000  2910.439000  2910.616000  
2910.687000  2910.715000  2910.797000  2910.815000  2910.831000  2910.868000  
2911.035000  2911.413000  2911.597000  2911.731000  2911.822000  2911.834000  
2911.951000  2912.042000  2912.125000  2912.204000  2912.610000  2912.653000  
2912.726000  2912.853000  2912.988000  2913.250000  2913.665000  2913.962000  
2914.202000  2914.274000  2915.411000  2915.416000  2915.579000  2915.601000  
2915.882000  2915.956000  2916.296000  2916.357000  2916.384000  2916.403000  
2916.578000  2916.975000  2916.995000  2917.107000  2917.304000  2917.629000  
2918.129000  2918.442000  2919.126000  2919.346000  2919.446000  2919.557000  
2919.808000  2920.226000  2920.474000  2921.088000  2921.245000  2921.550000  
2921.726000  2921.993000  2922.351000  2922.863000  2923.124000  2923.270000  
2925.090000  2925.279000  2925.332000  2925.712000  2925.995000  2926.047000  
2926.793000  2926.967000  2927.174000  2927.249000  2927.364000  2927.713000  
2927.970000  2928.013000  2928.175000  2928.311000  2928.780000  2928.864000  
2928.867000  2928.914000  2929.224000  2929.475000  2929.984000  2930.405000  
2930.480000  2930.656000  2930.764000  2930.960000  2930.991000  2930.993000  
2932.044000  2932.387000  2932.591000  2932.970000  2933.198000  2933.415000  
2933.455000  2933.780000  2934.058000  2934.149000  2934.339000  2934.402000  
2934.441000  2934.443000  2934.576000  2934.603000  2935.122000  2935.311000  
2935.452000  2935.698000  2935.711000  2936.194000  2936.557000  2936.646000  
2936.809000  2936.872000  2937.261000  2937.320000  2937.383000  2937.494000  
2937.567000  2937.617000  2937.911000  2938.103000  2938.195000  2938.797000  
2938.880000  2938.907000  2941.364000  2941.770000  2942.474000  2942.553000  
2942.601000  2943.375000  2944.026000  2944.882000  2945.005000  2945.092000  
2945.092000  2945.115000  2946.102000  2946.356000  2946.428000  2946.508000  
2946.569000  2946.646000  2946.652000  2946.685000  2946.701000  2946.902000  
2947.801000  2948.183000  2948.400000  2948.419000  2948.675000  2948.821000  
2948.938000  2949.455000  2949.770000  2950.088000  2950.461000  2950.808000  
2951.177000  2951.499000  2951.758000  2952.153000  2952.190000  2952.288000  
2953.387000  2953.521000  2953.615000  2953.803000  2953.883000  2954.052000  
2954.522000  2955.932000  2956.162000  2956.588000  2956.954000  2957.387000  
2957.441000  2957.477000  2957.623000  2957.827000  2957.852000  2957.877000  
2957.985000  2957.986000  2958.284000  2958.418000  2958.419000  2958.456000  
2958.604000  2958.713000  2958.909000  2958.933000  2958.951000  2959.051000  
2959.264000  2959.419000  2959.493000  2959.617000  2959.633000  2959.639000  
2959.758000  2959.763000  2959.780000  2959.864000  2959.936000  2960.225000  
2960.404000  2960.546000  2960.596000  2960.685000  2960.742000  2960.794000  
2960.947000  2960.996000  2961.218000  2961.350000  2961.530000  2961.870000  
2961.982000  2962.033000  2962.067000  2962.220000  2962.382000  2962.532000  
2962.663000  2962.668000  2962.961000  2963.309000  2963.578000  2963.664000  
2963.772000  2964.173000  2964.268000  2964.337000  2964.636000  2964.792000  
2965.338000  2965.462000  2965.640000  2966.147000  2966.552000  2966.905000  
2967.148000  2967.192000  2967.484000  2967.916000  2968.850000  2969.078000  
2969.355000  2970.167000  2970.363000  2971.504000  2973.180000  2973.404000  
2974.594000  2974.724000  2975.912000  2979.921000  2980.476000  2984.068000  
2984.269000  2986.627000  2986.920000  3012.660000  3053.442000  3053.652000  
3053.790000  3054.019000  3054.186000  3054.295000  3054.404000  3054.584000  
3054.727000  3055.004000  3055.175000  3055.517000  3055.550000  3055.561000  
3055.614000  3055.677000  3055.899000  3055.979000  3056.007000  3056.286000  
3056.358000  3056.524000  3056.707000  3056.796000  3057.066000  3057.149000  
3057.348000  3057.619000  3058.063000  3058.468000  3058.557000  3058.605000  
3058.715000  3058.996000  3059.081000  3059.231000  3059.318000  3059.613000  
3059.813000  3059.894000  3060.275000  3060.476000  3060.534000  3061.182000  
3061.417000  3061.497000  3062.420000  3062.488000  3062.701000  3062.919000  
3063.546000  3063.852000  3064.002000  3064.194000  3064.666000  3064.919000  
3066.493000  3066.665000  3066.980000  3067.139000  3067.401000  3069.275000  
3070.085000  3071.600000  3076.699000  3078.192000  3082.566000  3087.951000  
3094.403000  3136.569000  3140.808000  3141.506000  3142.936000  3143.751000  
3147.159000  3148.066000  3148.355000  3148.366000  3148.941000  3150.149000  
3160.513000  3160.576000  3162.897000  3240.577000  3243.401000  3245.225000  
3245.399000  3248.766000  3255.816000  3256.597000  3256.970000  3257.036000  
3257.070000  3257.639000  3257.650000  3257.749000  3257.873000  3257.994000  
3258.246000  3258.930000  3258.951000  3259.026000  3259.066000  3259.467000  
3259.983000  3272.938000  3279.673000  3285.010000  3286.487000  3291.758000  
3293.690000  3303.326000  3303.358000  3303.587000  3303.588000  3303.810000  
3306.474000  3309.578000  3310.762000  3310.982000  3311.289000  3311.750000  
3311.862000  3311.998000  3312.228000  3312.390000  3312.606000  3312.657000  
3313.104000  3313.281000  3313.441000  3313.680000  3313.942000  3313.987000  
3314.114000  3314.294000  3314.378000  3315.274000  3315.334000  3315.458000  
3315.625000  3316.049000  3316.175000  3316.231000  3316.541000  3316.883000  
3316.957000  3317.294000  3317.985000  3318.579000  3318.673000  3319.057000  
3319.211000  3319.259000  3319.810000  3320.259000  3320.760000  3320.953000  
3321.494000  3321.739000  3321.927000  3322.054000  3322.210000  3322.245000  
3322.469000  3322.520000  3322.914000  3323.035000  3323.103000  3323.244000  
3323.760000  3323.850000  3324.047000  3324.224000  3324.933000  3325.137000  
3325.311000  3326.273000  3326.771000  3326.943000  3327.304000  3327.666000  
3327.778000  3328.102000  3328.666000  3329.154000  3329.658000  3329.677000  
3330.267000  3330.403000  3330.649000  3332.075000  3332.170000  3334.320000  
3334.668000  3352.465000  3354.189000  3356.094000  3376.011000  3378.022000  
3388.924000  3403.127000  3403.153000  3407.606000  3410.183000  3414.017000  
3416.078000  3416.633000  3417.239000  3420.103000  3423.199000  3431.118000  
3431.387000  3432.575000  3432.768000  3504.168000  3514.162000  3514.353000  
3519.899000  3523.587000  3529.492000  3533.996000  3652.359000  3664.158000  
3669.131000  3673.164000  3675.253000  3675.393000  3676.896000  3679.200000  

Extensive quantities:
            Elec      Trans        Rot      VibCl      VibQm      TotCl    TotQm 
   U   -3082.420      0.894      0.894   2575.417   7957.006   -505.215   4876.374 kcal
   S       0.000     47.158     52.831  -2756.482   3261.899  -2656.493   3361.888  cal
 -TS       0.000    -14.147    -15.849    826.945   -978.570    796.948  -1008.567 kcal
   F   -3082.420    -13.253    -14.955   3402.361   6978.436    291.733   3867.808 kcal

Intensive (molar) quantities:
            Elec      Trans        Rot      VibCl      VibQm      TotCl      TotQm 
   Um  -3082.420      0.894      0.894   2575.417   7957.006   -505.215   4876.374 kcal/mol
   Sm      0.000     45.171     52.831  -2756.482   3261.899  -2658.480   3359.901  cal/mol
 -TSm      0.000    -13.551    -15.849    826.945   -978.570    797.544  -1007.970 kcal/mol
   Fm  -3082.420    -12.657    -14.955   3402.361   6978.436    292.329   3868.404 kcal/mol

Zero point vibrational energy:    7485.813 kcal/mol


Molecule B: <pps.inp>                
---------------------------------------------

Parsed thermodynamic quantities:
   Temperature [K]:           300
   Number of moles [mol]:     1
   Volume [dm^3]:             1
   Concentration [M]:         1
   Molecular mass [g/mol]:    10163
   Molar energy [kcal/mol]:   -3083.190000
   Degree of freedom:
      translational:          3
      rotational:             3
         moments of inerzia [g/mol/A^2]:
            738334.000000
            1118457.000000
            1182514.000000
         symmetry number:     1
      vibrational modes:      4320
         frequencies [1/cm]: 
   5.385000     6.213000     6.431000     7.760000     8.419000     9.297000  
   9.977000    10.603000    11.040000    11.227000    12.117000    12.807000  
  13.028000    13.169000    13.900000    14.019000    14.477000    14.563000  
  14.877000    15.395000    15.715000    16.351000    16.868000    17.277000  
  17.582000    17.716000    18.058000    18.390000    18.915000    19.223000  
  19.395000    19.824000    20.359000    20.636000    21.110000    21.414000  
  22.410000    22.663000    23.071000    23.253000    23.561000    24.078000  
  24.207000    25.428000    25.663000    25.813000    26.285000    26.333000  
  26.871000    27.115000    27.459000    27.698000    27.948000    28.266000  
  29.089000    29.361000    29.656000    29.794000    30.433000    30.619000  
  31.015000    31.300000    31.409000    31.788000    32.094000    32.499000  
  32.775000    33.319000    33.526000    33.921000    34.112000    34.345000  
  34.703000    34.914000    35.215000    35.368000    35.557000    35.870000  
  36.219000    36.521000    36.871000    37.444000    37.648000    37.923000  
  38.101000    38.477000    38.998000    39.044000    39.264000    39.309000  
  39.377000    39.728000    40.063000    40.308000    40.401000    40.563000  
  41.060000    41.208000    41.312000    41.635000    42.076000    42.407000  
  42.627000    42.744000    42.832000    42.983000    43.321000    43.988000  
  44.210000    44.577000    44.622000    44.880000    45.121000    45.306000  
  45.615000    45.837000    45.953000    46.333000    46.667000    46.859000  
  47.048000    47.102000    47.405000    47.452000    48.009000    48.358000  
  48.481000    48.826000    48.990000    49.339000    49.717000    50.034000  
  50.404000    50.587000    50.615000    51.013000    51.266000    51.419000  
  51.581000    52.303000    52.464000    52.717000    52.780000    53.205000  
  53.649000    53.938000    54.237000    54.375000    54.599000    54.817000  
  55.127000    55.355000    55.597000    56.082000    56.542000    56.627000  
  56.916000    57.142000    57.519000    57.792000    57.926000    58.198000  
  58.317000    58.771000    58.808000    59.099000    59.712000    59.903000  
  60.220000    60.609000    60.843000    61.400000    61.487000    61.649000  
  62.048000    62.311000    62.581000    62.734000    62.982000    63.352000  
  63.521000    63.988000    64.075000    64.629000    64.688000    65.027000  
  65.090000    65.537000    65.748000    65.766000    66.161000    66.742000  
  66.902000    67.237000    67.288000    67.329000    67.824000    68.483000  
  69.031000    69.315000    69.514000    69.674000    69.904000    70.036000  
  70.340000    70.900000    70.972000    71.456000    71.719000    71.945000  
  72.221000    72.415000    72.531000    72.942000    73.475000    73.633000  
  73.999000    74.203000    74.600000    74.773000    75.026000    75.233000  
  75.256000    75.565000    76.016000    76.162000    76.938000    77.235000  
  77.400000    77.738000    77.939000    78.325000    78.675000    78.816000  
  78.942000    79.441000    79.665000    79.918000    80.431000    80.694000  
  81.056000    81.430000    81.797000    81.839000    82.196000    82.472000  
  82.850000    82.968000    83.438000    84.038000    84.089000    84.150000  
  84.335000    84.660000    84.933000    85.176000    85.458000    85.973000  
  86.488000    86.586000    86.731000    86.983000    87.094000    87.623000  
  87.668000    88.189000    88.570000    88.814000    89.287000    89.533000  
  90.122000    90.402000    90.871000    91.237000    91.443000    91.843000  
  92.027000    92.075000    92.322000    92.451000    92.703000    93.137000  
  94.024000    94.139000    94.288000    94.586000    94.724000    95.028000  
  95.700000    95.897000    96.256000    96.769000    96.828000    97.453000  
  97.605000    97.759000    97.899000    98.076000    98.728000    98.846000  
  99.210000    99.536000    99.604000   100.237000   100.731000   100.801000  
 101.522000   101.672000   101.920000   102.068000   102.566000   102.791000  
 103.087000   103.876000   103.949000   104.152000   104.382000   104.665000  
 105.014000   105.319000   105.656000   105.850000   105.913000   106.022000  
 106.270000   106.772000   107.460000   107.734000   107.962000   108.175000  
 108.468000   108.996000   109.232000   109.348000   109.578000   109.779000  
 110.278000   110.485000   110.718000   111.242000   111.286000   111.559000  
 111.850000   112.004000   112.273000   112.611000   112.714000   113.005000  
 113.237000   113.522000   113.867000   114.338000   114.893000   115.216000  
 115.373000   115.742000   116.123000   116.362000   116.695000   117.175000  
 117.241000   117.282000   117.570000   118.029000   118.099000   118.395000  
 118.573000   118.971000   119.680000   119.793000   120.349000   120.452000  
 121.167000   121.719000   122.108000   122.322000   123.001000   123.559000  
 123.979000   124.325000   125.006000   125.892000   126.273000   126.334000  
 126.831000   127.228000   127.302000   127.476000   128.237000   128.629000  
 128.989000   129.274000   129.508000   129.711000   129.845000   130.426000  
 130.890000   131.208000   131.577000   131.999000   132.267000   132.451000  
 132.701000   133.285000   133.623000   134.087000   134.525000   134.968000  
 135.257000   135.424000   135.876000   136.464000   136.670000   137.319000  
 137.328000   137.548000   137.796000   138.300000   138.967000   139.320000  
 139.772000   140.031000   140.540000   141.090000   141.889000   142.107000  
 142.200000   142.866000   143.374000   143.605000   144.193000   144.714000  
 144.876000   144.982000   145.604000   145.769000   145.962000   146.809000  
 147.220000   147.546000   147.956000   148.278000   148.939000   149.262000  
 149.758000   149.931000   150.457000   150.567000   150.932000   150.957000  
 151.475000   152.348000   153.663000   154.539000   154.799000   154.922000  
 155.497000   155.781000   156.426000   156.604000   156.803000   157.339000  
 157.802000   157.894000   158.216000   158.339000   158.631000   158.904000  
 159.041000   159.878000   159.958000   160.379000   160.782000   161.638000  
 162.069000   162.535000   163.090000   163.201000   163.550000   163.688000  
 164.074000   164.461000   164.564000   164.827000   165.039000   165.275000  
 166.360000   166.453000   167.136000   167.241000   167.314000   168.041000  
 168.270000   168.647000   168.802000   169.513000   169.721000   170.272000  
 170.483000   170.823000   171.262000   171.983000   172.150000   172.772000  
 172.876000   173.409000   173.947000   174.613000   174.876000   175.418000  
 175.795000   175.843000   176.262000   176.744000   176.800000   176.996000  
 177.379000   177.814000   177.989000   178.157000   178.477000   178.798000  
 179.203000   179.391000   179.743000   179.939000   180.687000   180.803000  
 181.350000   181.589000   182.150000   182.405000   182.999000   183.148000  
 183.406000   183.557000   184.238000   184.411000   185.297000   185.854000  
 186.183000   186.312000   186.704000   187.801000   188.748000   189.160000  
 189.519000   190.703000   191.054000   191.563000   191.751000   191.974000  
 192.580000   192.762000   193.021000   194.371000   194.639000   195.278000  
 196.184000   196.487000   197.220000   197.544000   198.156000   198.720000  
 199.097000   199.509000   200.028000   200.519000   201.018000   201.200000  
 201.753000   202.523000   202.682000   203.325000   203.849000   203.941000  
 204.263000   204.538000   205.401000   205.628000   206.084000   206.388000  
 206.812000   207.292000   207.764000   208.153000   208.915000   209.241000  
 210.001000   210.117000   210.808000   211.050000   211.857000   212.223000  
 212.655000   212.829000   213.404000   213.813000   214.032000   215.524000  
 215.661000   217.113000   217.315000   217.451000   217.982000   218.147000  
 218.511000   218.661000   219.105000   219.181000   219.346000   220.338000  
 221.218000   222.125000   222.758000   222.929000   224.238000   224.710000  
 224.897000   225.320000   225.508000   225.798000   226.163000   226.357000  
 226.710000   227.238000   227.665000   228.083000   228.576000   229.590000  
 229.757000   230.186000   230.402000   230.788000   230.991000   231.593000  
 232.026000   232.330000   234.083000   234.935000   235.985000   236.359000  
 236.608000   237.105000   237.462000   237.621000   237.855000   238.282000  
 238.485000   238.602000   238.947000   239.309000   239.901000   240.259000  
 240.363000   240.742000   241.995000   242.247000   242.363000   242.378000  
 242.977000   244.047000   244.640000   244.873000   245.214000   245.576000  
 245.945000   246.448000   246.712000   247.123000   247.416000   247.628000  
 247.776000   247.888000   248.299000   248.620000   248.779000   248.898000  
 249.258000   249.405000   249.553000   249.990000   250.097000   250.301000  
 250.640000   250.707000   250.798000   251.154000   251.818000   253.067000  
 253.215000   253.517000   253.987000   254.311000   254.419000   254.787000  
 255.027000   255.962000   256.620000   256.925000   257.407000   257.878000  
 258.944000   259.491000   260.200000   261.039000   261.815000   262.012000  
 262.355000   262.407000   263.451000   263.601000   264.369000   265.612000  
 265.761000   265.850000   265.936000   266.265000   267.176000   267.469000  
 268.025000   268.395000   268.845000   269.242000   269.797000   270.143000  
 270.578000   271.304000   271.732000   271.990000   272.098000   272.263000  
 272.747000   272.895000   273.114000   273.194000   273.348000   274.059000  
 274.748000   275.102000   275.694000   275.823000   276.418000   277.235000  
 278.099000   278.387000   278.687000   279.323000   279.358000   279.805000  
 280.055000   280.236000   280.936000   282.048000   282.624000   282.771000  
 282.795000   282.980000   283.067000   283.837000   285.358000   285.536000  
 286.909000   287.693000   287.752000   287.822000   287.935000   288.044000  
 289.141000   289.399000   289.895000   290.783000   290.915000   291.183000  
 291.710000   291.943000   292.085000   292.702000   292.871000   293.763000  
 294.678000   294.958000   295.012000   295.309000   296.277000   296.595000  
 297.588000   297.770000   297.986000   298.610000   298.850000   299.773000  
 299.987000   300.565000   300.928000   301.056000   301.513000   301.571000  
 302.562000   302.808000   302.829000   304.116000   304.337000   304.581000  
 305.492000   305.738000   306.453000   306.764000   306.900000   307.775000  
 307.939000   308.361000   309.100000   309.662000   310.457000   311.925000  
 312.377000   312.453000   312.754000   312.951000   313.138000   313.464000  
 313.500000   313.614000   314.123000   314.313000   314.663000   315.353000  
 315.728000   316.921000   317.524000   317.919000   318.235000   318.522000  
 318.921000   319.779000   320.058000   320.280000   320.952000   321.914000  
 322.179000   322.898000   323.452000   323.718000   324.395000   324.687000  
 324.913000   325.029000   325.166000   325.787000   326.008000   326.365000  
 328.078000   328.522000   328.836000   330.209000   330.593000   330.631000  
 331.128000   331.601000   331.853000   332.450000   332.821000   333.292000  
 333.737000   334.098000   334.543000   334.745000   335.474000   336.243000  
 336.334000   336.826000   337.528000   338.067000   338.217000   338.451000  
 339.123000   339.187000   339.300000   340.109000   340.434000   340.672000  
 341.217000   341.405000   341.468000   342.423000   343.581000   346.341000  
 346.602000   346.637000   346.893000   347.135000   348.601000   349.288000  
 349.412000   349.561000   350.170000   350.699000   351.617000   352.392000  
 352.935000   353.077000   354.339000   354.473000   354.788000   354.949000  
 354.970000   355.120000   355.279000   356.256000   356.368000   357.189000  
 357.794000   358.273000   360.733000   361.037000   361.474000   361.528000  
 361.603000   362.786000   362.979000   363.142000   363.270000   364.224000  
 364.326000   365.003000   365.255000   366.732000   367.148000   368.219000  
 369.333000   370.226000   370.474000   371.266000   372.969000   374.672000  
 375.167000   375.180000   376.852000   377.488000   378.110000   379.363000  
 379.759000   380.034000   380.669000   380.966000   381.014000   381.190000  
 383.186000   383.676000   384.124000   385.625000   386.303000   387.268000  
 387.285000   387.409000   387.599000   388.133000   389.108000   391.550000  
 392.042000   392.453000   392.769000   393.197000   394.172000   394.849000  
 395.179000   395.230000   395.936000   396.348000   396.414000   397.533000  
 397.819000   398.695000   399.242000   401.023000   401.063000   401.333000  
 401.768000   403.390000   403.763000   403.993000   404.058000   404.611000  
 405.692000   406.883000   407.019000   407.254000   408.687000   409.210000  
 409.315000   409.577000   409.823000   410.957000   412.010000   413.149000  
 413.304000   413.939000   415.960000   416.467000   417.256000   418.146000  
 418.540000   419.014000   419.412000   420.193000   421.333000   422.105000  
 422.392000   422.782000   423.162000   423.234000   423.315000   423.463000  
 424.379000   425.157000   425.416000   425.513000   425.785000   425.973000  
 426.143000   426.667000   427.189000   428.023000   428.853000   429.460000  
 430.018000   430.267000   430.287000   430.610000   430.918000   431.297000  
 431.353000   431.727000   432.210000   432.501000   432.888000   433.018000  
 433.356000   433.933000   434.107000   434.528000   436.628000   438.581000  
 439.356000   440.221000   440.315000   440.618000   442.175000   444.292000  
 444.502000   444.567000   445.694000   446.487000   446.510000   447.517000  
 447.674000   448.782000   449.911000   452.223000   452.297000   452.916000  
 453.547000   455.536000   456.541000   457.281000   458.437000   459.297000  
 460.209000   461.104000   461.719000   463.096000   463.524000   464.479000  
 464.588000   465.397000   465.923000   466.347000   466.460000   467.085000  
 468.704000   469.105000   470.164000   470.468000   470.720000   470.858000  
 472.420000   472.530000   472.955000   474.014000   474.057000   474.309000  
 474.670000   475.250000   475.376000   477.422000   478.338000   479.061000  
 479.183000   480.247000   480.482000   480.609000   482.012000   483.506000  
 483.668000   484.563000   484.641000   484.714000   485.379000   485.799000  
 486.448000   487.023000   488.408000   488.525000   489.008000   489.308000  
 489.580000   489.805000   490.587000   490.798000   491.859000   492.129000  
 492.404000   492.906000   494.381000   495.161000   497.073000   497.853000  
 497.979000   499.387000   499.577000   500.564000   501.398000   501.608000  
 502.216000   502.562000   502.812000   503.355000   503.680000   504.462000  
 504.648000   505.608000   506.935000   507.090000   509.144000   509.293000  
 509.368000   512.045000   512.091000   514.601000   514.887000   514.991000  
 515.613000   516.720000   517.481000   517.812000   518.020000   519.669000  
 520.044000   520.359000   521.407000   522.042000   523.058000   523.554000  
 524.121000   525.282000   526.267000   527.222000   527.555000   529.123000  
 530.670000   531.616000   531.648000   532.211000   532.339000   533.018000  
 533.032000   537.539000   537.797000   538.314000   538.649000   540.960000  
 541.910000   542.834000   542.853000   543.111000   545.546000   547.058000  
 547.374000   547.481000   548.388000   548.953000   549.100000   550.360000  
 550.561000   550.922000   552.244000   552.841000   552.931000   555.238000  
 555.879000   561.088000   561.386000   563.783000   564.190000   565.474000  
 566.927000   568.531000   568.541000   570.109000   571.396000   571.489000  
 572.162000   573.673000   576.113000   577.669000   577.780000   577.835000  
 578.401000   578.817000   579.073000   580.332000   581.532000   581.800000  
 583.224000   585.549000   586.031000   586.439000   587.387000   589.574000  
 592.765000   594.427000   596.399000   600.186000   600.327000   600.346000  
 603.888000   604.365000   606.833000   607.690000   609.158000   609.802000  
 610.731000   611.204000   612.383000   614.330000   614.881000   615.784000  
 616.413000   617.406000   617.457000   618.852000   619.526000   620.179000  
 620.489000   620.875000   622.801000   623.191000   623.964000   624.173000  
 626.247000   626.569000   628.457000   629.128000   629.617000   629.992000  
 630.757000   631.092000   631.260000   631.870000   632.800000   633.400000  
 634.080000   634.826000   634.852000   636.056000   636.917000   637.225000  
 637.333000   637.866000   638.206000   639.407000   639.503000   641.501000  
 641.631000   641.881000   643.146000   643.529000   644.373000   645.016000  
 645.611000   646.862000   647.022000   647.186000   647.611000   648.094000  
 650.152000   650.801000   651.293000   651.741000   651.906000   653.113000  
 653.842000   654.149000   654.177000   654.213000   654.450000   655.229000  
 657.028000   657.526000   658.716000   659.088000   659.135000   659.469000  
 660.501000   661.671000   662.283000   662.304000   662.341000   663.328000  
 663.636000   663.920000   664.280000   664.580000   665.086000   665.481000  
 666.282000   667.205000   667.319000   667.331000   669.158000   670.653000  
 671.442000   672.036000   672.262000   672.548000   673.832000   674.161000  
 675.193000   675.295000   675.899000   676.151000   676.689000   677.289000  
 677.420000   677.448000   677.547000   677.854000   678.083000   679.019000  
 679.434000   680.092000   680.218000   680.793000   681.096000   681.891000  
 682.057000   682.526000   683.043000   683.297000   683.859000   684.302000  
 684.788000   685.505000   685.659000   686.974000   687.652000   688.351000  
 689.375000   690.500000   691.374000   693.574000   694.229000   695.879000  
 696.317000   696.850000   696.991000   699.130000   699.359000   700.310000  
 700.898000   701.051000   701.558000   704.718000   705.665000   707.852000  
 707.873000   708.316000   708.860000   710.885000   712.149000   712.762000  
 713.232000   713.571000   714.116000   715.230000   715.484000   716.204000  
 718.814000   719.089000   720.480000   722.523000   722.551000   723.002000  
 723.536000   723.868000   724.160000   724.344000   724.967000   725.325000  
 726.365000   727.241000   727.548000   727.585000   728.128000   728.716000  
 728.800000   729.759000   729.909000   730.644000   730.924000   731.133000  
 731.293000   731.472000   732.036000   733.330000   733.343000   733.934000  
 735.406000   735.506000   735.581000   735.763000   735.825000   736.419000  
 737.170000   738.701000   739.423000   741.312000   742.525000   742.592000  
 742.918000   743.105000   743.203000   743.385000   743.448000   745.614000  
 746.530000   746.776000   748.447000   748.451000   748.843000   750.528000  
 751.364000   752.417000   752.833000   753.098000   753.354000   753.526000  
 753.565000   753.653000   754.331000   755.822000   755.891000   756.614000  
 756.657000   758.311000   758.392000   758.518000   758.873000   759.715000  
 760.049000   760.143000   760.426000   760.969000   761.317000   761.371000  
 762.218000   762.870000   762.935000   763.168000   764.397000   764.622000  
 764.885000   765.027000   765.344000   765.411000   766.432000   767.499000  
 767.706000   767.874000   768.220000   768.526000   768.690000   768.813000  
 769.721000   769.746000   770.177000   770.379000   770.632000   771.084000  
 771.103000   771.690000   772.091000   772.996000   773.895000   774.295000  
 774.851000   775.675000   775.841000   776.366000   776.428000   777.820000  
 778.262000   778.408000   779.320000   780.006000   780.743000   780.769000  
 780.812000   781.779000   782.408000   783.255000   783.455000   784.043000  
 784.577000   784.947000   785.205000   785.417000   785.645000   785.948000  
 786.029000   786.257000   786.632000   787.071000   787.766000   787.919000  
 788.065000   788.657000   789.548000   789.882000   790.118000   790.865000  
 791.015000   791.535000   791.952000   792.066000   792.817000   793.243000  
 793.908000   794.313000   794.642000   794.951000   795.964000   796.074000  
 797.095000   797.330000   797.566000   797.917000   798.045000   798.408000  
 798.577000   799.092000   799.403000   800.630000   800.834000   800.922000  
 801.449000   801.732000   801.773000   802.089000   802.161000   802.444000  
 803.611000   803.627000   804.328000   805.073000   805.612000   805.622000  
 806.455000   806.648000   806.665000   807.319000   807.458000   808.275000  
 808.547000   808.878000   809.242000   809.304000   809.789000   809.898000  
 810.320000   810.363000   810.428000   810.606000   810.696000   811.185000  
 811.539000   812.282000   812.745000   813.353000   813.519000   813.717000  
 813.928000   814.119000   814.223000   815.126000   815.618000   815.816000  
 816.146000   816.862000   817.046000   817.710000   818.279000   818.828000  
 818.964000   819.993000   821.140000   822.095000   822.918000   823.034000  
 824.168000   824.295000   825.328000   825.442000   825.527000   825.622000  
 825.855000   826.253000   827.510000   827.935000   828.240000   828.377000  
 829.250000   830.454000   832.119000   832.135000   832.752000   833.222000  
 833.376000   833.910000   834.797000   834.865000   835.149000   836.495000  
 836.763000   836.874000   837.343000   837.746000   837.835000   838.723000  
 838.798000   839.415000   839.420000   839.486000   839.816000   840.058000  
 840.258000   841.174000   841.646000   842.243000   842.526000   842.722000  
 844.575000   844.780000   844.943000   845.038000   846.216000   846.343000  
 847.026000   847.159000   847.605000   847.738000   847.983000   848.605000  
 848.712000   848.917000   849.004000   849.151000   850.541000   851.114000  
 851.533000   852.615000   852.820000   853.804000   854.354000   854.407000  
 854.665000   855.014000   855.032000   855.192000   855.324000   858.021000  
 858.092000   858.747000   858.995000   859.457000   860.588000   861.316000  
 861.334000   861.997000   862.780000   864.443000   864.575000   864.791000  
 866.185000   866.351000   866.612000   867.025000   868.465000   868.723000  
 868.914000   869.269000   869.796000   869.826000   871.132000   871.589000  
 872.131000   873.857000   874.353000   874.523000   874.870000   875.008000  
 876.417000   876.751000   877.721000   879.159000   879.186000   879.871000  
 881.083000   881.269000   881.558000   881.899000   882.153000   882.783000  
 882.925000   885.065000   885.168000   886.297000   886.561000   886.803000  
 886.904000   887.298000   888.262000   888.527000   890.257000   890.786000  
 890.867000   891.863000   891.953000   892.329000   892.663000   892.747000  
 893.011000   893.035000   893.390000   893.487000   893.812000   894.039000  
 894.418000   895.086000   895.641000   895.766000   895.929000   896.053000  
 897.161000   897.181000   897.549000   897.627000   898.494000   898.947000  
 899.047000   899.955000   901.057000   901.587000   901.645000   902.467000  
 902.554000   903.095000   904.668000   905.416000   905.635000   905.999000  
 906.243000   906.415000   907.214000   907.827000   908.772000   909.434000  
 910.908000   910.970000   911.114000   912.608000   914.375000   914.924000  
 915.124000   915.591000   916.087000   916.122000   916.422000   916.657000  
 918.281000   918.374000   919.020000   919.242000   919.438000   919.753000  
 920.068000   922.031000   922.276000   922.617000   922.924000   923.596000  
 923.762000   924.128000   924.367000   924.391000   925.631000   926.509000  
 926.894000   927.948000   928.053000   928.125000   928.196000   929.103000  
 929.460000   930.354000   930.631000   930.861000   930.933000   930.960000  
 931.461000   931.622000   931.687000   932.471000   932.536000   932.893000  
 933.991000   934.188000   934.727000   934.789000   935.083000   935.123000  
 935.364000   935.949000   937.529000   938.380000   938.854000   939.395000  
 940.380000   940.938000   941.004000   941.072000   941.225000   941.307000  
 941.370000   942.150000   942.332000   942.519000   942.665000   942.710000  
 942.776000   942.894000   943.617000   943.888000   944.042000   944.349000  
 944.530000   944.614000   944.694000   944.807000   944.928000   945.066000  
 945.656000   945.688000   946.476000   946.544000   946.674000   947.167000  
 948.004000   948.113000   948.155000   948.441000   948.711000   948.923000  
 948.945000   949.199000   949.282000   949.587000   949.706000   949.886000  
 950.679000   950.879000   951.033000   951.584000   951.607000   951.902000  
 952.441000   952.547000   953.673000   953.828000   954.391000   954.601000  
 954.793000   955.447000   955.569000   955.755000   955.843000   956.017000  
 956.453000   956.514000   956.647000   956.801000   957.179000   957.514000  
 957.584000   957.635000   957.799000   957.972000   958.110000   958.558000  
 958.770000   959.181000   959.287000   959.524000   959.674000   960.016000  
 960.104000   960.131000   960.384000   960.563000   961.038000   961.640000  
 961.977000   962.696000   962.803000   963.195000   963.815000   964.254000  
 964.439000   965.153000   965.660000   965.678000   965.748000   966.588000  
 967.522000   967.661000   967.753000   968.239000   968.507000   968.721000  
 969.140000   969.293000   969.698000   969.793000   970.006000   970.220000  
 970.459000   971.146000   971.736000   972.335000   972.363000   972.949000  
 973.102000   973.121000   975.636000   975.735000   975.741000   975.758000  
 975.972000   976.015000   976.130000   976.273000   976.943000   977.124000  
 977.145000   977.497000   977.740000   977.914000   978.180000   978.263000  
 978.366000   978.392000   978.684000   978.996000   979.293000   979.334000  
 980.377000   980.786000   981.208000   981.557000   982.117000   982.254000  
 982.289000   982.410000   984.129000   984.750000   984.762000   984.936000  
 985.281000   985.953000   986.255000   986.916000   987.130000   987.241000  
 989.011000   989.041000   989.899000   990.317000   990.460000   990.627000  
 991.378000   991.432000   991.744000   991.851000   992.689000   992.809000  
 996.087000   996.787000   997.224000   997.666000   998.393000   998.638000  
 998.798000   999.518000  1000.126000  1000.841000  1001.185000  1001.344000  
1001.899000  1002.198000  1002.787000  1003.487000  1003.701000  1003.860000  
1004.640000  1005.552000  1005.840000  1006.207000  1006.212000  1006.352000  
1006.662000  1007.285000  1007.585000  1008.068000  1010.753000  1011.018000  
1012.226000  1012.965000  1013.651000  1013.927000  1014.394000  1014.456000  
1014.726000  1015.269000  1015.370000  1015.486000  1015.545000  1016.093000  
1016.131000  1016.711000  1018.068000  1018.143000  1018.432000  1018.744000  
1019.032000  1019.224000  1019.745000  1020.106000  1020.642000  1021.114000  
1021.345000  1021.765000  1022.135000  1022.217000  1022.766000  1022.983000  
1023.440000  1023.621000  1024.093000  1024.243000  1024.486000  1024.845000  
1025.104000  1025.673000  1027.290000  1027.926000  1028.074000  1028.420000  
1028.427000  1028.807000  1028.857000  1029.428000  1029.873000  1029.923000  
1030.159000  1031.554000  1031.625000  1031.691000  1031.885000  1032.376000  
1032.508000  1032.603000  1033.102000  1033.530000  1033.659000  1033.730000  
1033.771000  1033.836000  1034.124000  1034.237000  1034.766000  1034.936000  
1035.100000  1035.594000  1035.764000  1036.116000  1036.344000  1036.353000  
1037.000000  1037.219000  1037.247000  1037.490000  1038.013000  1038.043000  
1038.597000  1038.900000  1038.930000  1039.083000  1039.383000  1040.188000  
1040.529000  1040.879000  1042.126000  1042.433000  1043.093000  1043.382000  
1043.636000  1044.038000  1045.693000  1045.785000  1045.890000  1046.332000  
1046.586000  1046.839000  1046.962000  1048.662000  1048.859000  1048.920000  
1049.140000  1050.428000  1051.313000  1051.356000  1052.068000  1052.148000  
1052.195000  1053.465000  1053.585000  1054.064000  1054.227000  1054.429000  
1054.930000  1055.777000  1055.986000  1056.380000  1056.418000  1056.715000  
1057.052000  1057.094000  1057.145000  1057.190000  1057.795000  1058.227000  
1058.310000  1058.588000  1058.996000  1059.021000  1059.137000  1059.514000  
1059.835000  1059.956000  1060.030000  1060.839000  1061.032000  1061.440000  
1061.749000  1062.046000  1062.459000  1062.465000  1062.530000  1062.969000  
1064.204000  1064.941000  1065.082000  1065.723000  1065.797000  1065.863000  
1066.211000  1066.486000  1066.566000  1066.926000  1067.648000  1067.774000  
1068.824000  1068.961000  1069.649000  1069.668000  1071.386000  1071.451000  
1071.598000  1072.111000  1072.306000  1072.423000  1073.049000  1073.260000  
1073.672000  1075.110000  1075.386000  1075.615000  1076.029000  1076.185000  
1076.300000  1077.880000  1077.939000  1078.327000  1078.334000  1078.347000  
1078.543000  1078.812000  1080.430000  1080.774000  1081.042000  1081.371000  
1081.772000  1082.302000  1082.370000  1082.569000  1083.324000  1083.531000  
1083.702000  1084.274000  1085.325000  1085.419000  1085.573000  1086.288000  
1086.440000  1086.584000  1086.646000  1086.882000  1087.040000  1088.342000  
1088.569000  1088.577000  1088.664000  1088.810000  1088.890000  1088.969000  
1089.449000  1089.682000  1090.625000  1090.685000  1090.698000  1091.119000  
1091.402000  1092.386000  1092.848000  1093.044000  1093.079000  1093.334000  
1094.232000  1094.434000  1094.444000  1094.592000  1095.411000  1095.842000  
1096.099000  1096.583000  1096.918000  1097.296000  1097.738000  1099.128000  
1099.350000  1099.612000  1099.664000  1100.506000  1100.861000  1101.252000  
1101.272000  1101.916000  1102.736000  1102.836000  1103.787000  1104.006000  
1104.763000  1104.816000  1104.931000  1106.590000  1107.664000  1107.690000  
1108.704000  1108.810000  1109.106000  1109.244000  1109.369000  1110.393000  
1110.823000  1111.386000  1112.053000  1112.176000  1112.863000  1113.202000  
1113.232000  1113.858000  1114.240000  1114.551000  1114.795000  1114.930000  
1115.254000  1115.509000  1116.620000  1116.978000  1117.180000  1117.333000  
1117.403000  1118.027000  1118.788000  1119.638000  1119.847000  1120.414000  
1120.592000  1122.889000  1124.024000  1124.028000  1124.313000  1124.316000  
1124.670000  1125.177000  1125.317000  1125.336000  1126.064000  1126.153000  
1126.388000  1126.503000  1126.551000  1126.969000  1127.435000  1127.446000  
1127.476000  1127.874000  1128.303000  1128.436000  1128.794000  1129.096000  
1129.277000  1129.639000  1130.106000  1130.261000  1130.384000  1130.742000  
1130.983000  1131.301000  1131.453000  1131.493000  1131.721000  1131.840000  
1132.648000  1133.511000  1133.555000  1134.888000  1134.993000  1135.727000  
1136.549000  1137.859000  1138.420000  1139.038000  1139.531000  1139.602000  
1142.236000  1143.121000  1144.034000  1144.178000  1144.980000  1145.984000  
1146.124000  1146.724000  1147.150000  1147.593000  1148.308000  1148.941000  
1149.166000  1149.492000  1149.827000  1150.797000  1151.058000  1151.300000  
1151.980000  1151.993000  1152.051000  1152.329000  1152.848000  1153.140000  
1154.250000  1154.447000  1154.540000  1154.672000  1157.612000  1157.647000  
1158.962000  1159.023000  1159.257000  1159.793000  1160.177000  1161.703000  
1162.365000  1162.561000  1162.695000  1164.498000  1164.992000  1166.919000  
1168.671000  1168.955000  1168.998000  1169.124000  1169.439000  1169.864000  
1170.058000  1171.416000  1171.523000  1172.387000  1173.734000  1174.097000  
1174.477000  1175.974000  1176.212000  1176.415000  1177.080000  1178.412000  
1178.499000  1179.086000  1181.936000  1181.940000  1182.934000  1184.431000  
1185.436000  1185.546000  1186.856000  1188.919000  1190.034000  1190.188000  
1190.735000  1191.220000  1192.662000  1192.700000  1192.750000  1193.388000  
1194.247000  1194.870000  1195.284000  1195.492000  1195.685000  1196.127000  
1197.781000  1197.835000  1198.009000  1199.172000  1201.144000  1201.239000  
1202.175000  1202.655000  1203.827000  1204.111000  1204.372000  1204.910000  
1205.736000  1206.177000  1206.272000  1206.721000  1207.429000  1207.653000  
1208.672000  1209.919000  1210.161000  1210.593000  1210.941000  1211.093000  
1211.274000  1211.313000  1212.371000  1212.700000  1212.804000  1213.127000  
1213.794000  1213.971000  1214.133000  1214.529000  1214.821000  1215.270000  
1215.542000  1216.066000  1216.333000  1216.809000  1216.930000  1217.373000  
1217.410000  1218.064000  1218.084000  1218.181000  1218.290000  1218.803000  
1218.840000  1219.712000  1219.989000  1220.184000  1220.912000  1221.160000  
1221.162000  1221.190000  1221.666000  1221.988000  1222.178000  1222.532000  
1223.333000  1224.651000  1224.936000  1225.234000  1225.668000  1225.921000  
1226.202000  1226.236000  1226.356000  1226.894000  1226.962000  1227.642000  
1228.115000  1228.175000  1228.467000  1228.795000  1229.537000  1230.093000  
1230.151000  1230.185000  1230.950000  1231.121000  1231.407000  1231.692000  
1231.808000  1231.896000  1232.070000  1232.176000  1232.341000  1232.463000  
1232.570000  1232.767000  1233.788000  1234.257000  1234.465000  1234.688000  
1235.017000  1235.287000  1236.875000  1236.926000  1237.291000  1237.402000  
1238.142000  1238.321000  1238.412000  1238.724000  1238.744000  1239.317000  
1239.437000  1239.760000  1239.939000  1240.295000  1240.435000  1240.513000  
1241.252000  1241.389000  1242.703000  1242.759000  1243.639000  1243.775000  
1244.434000  1244.742000  1244.790000  1245.291000  1245.775000  1246.427000  
1247.040000  1247.210000  1247.445000  1247.574000  1247.769000  1248.821000  
1248.922000  1249.201000  1249.793000  1250.341000  1250.586000  1250.680000  
1250.874000  1251.679000  1252.264000  1252.278000  1252.298000  1252.821000  
1253.887000  1254.329000  1254.581000  1254.987000  1255.407000  1255.508000  
1255.864000  1255.887000  1256.081000  1256.974000  1257.510000  1257.517000  
1257.617000  1258.039000  1258.067000  1258.841000  1259.510000  1260.101000  
1260.530000  1260.621000  1261.676000  1262.026000  1262.169000  1262.504000  
1262.657000  1265.196000  1265.319000  1265.351000  1266.454000  1266.462000  
1266.507000  1266.627000  1267.695000  1267.822000  1268.071000  1269.453000  
1272.466000  1273.976000  1274.591000  1276.337000  1277.322000  1278.626000  
1278.978000  1279.249000  1281.307000  1281.644000  1282.437000  1283.653000  
1283.744000  1284.295000  1284.591000  1285.973000  1286.502000  1287.878000  
1288.364000  1288.764000  1289.294000  1290.249000  1290.921000  1291.080000  
1291.103000  1291.892000  1292.685000  1292.885000  1293.252000  1294.078000  
1294.798000  1295.024000  1295.071000  1295.212000  1295.368000  1295.769000  
1296.210000  1296.515000  1296.849000  1296.893000  1297.567000  1297.932000  
1298.325000  1298.443000  1299.193000  1299.660000  1299.895000  1300.241000  
1300.560000  1300.764000  1300.789000  1301.458000  1302.671000  1303.290000  
1303.328000  1304.876000  1304.904000  1304.908000  1305.341000  1305.359000  
1306.037000  1306.868000  1307.372000  1307.574000  1307.967000  1308.613000  
1308.899000  1310.063000  1310.232000  1310.802000  1311.309000  1312.368000  
1312.623000  1312.787000  1312.909000  1313.030000  1313.514000  1313.865000  
1313.975000  1314.039000  1314.178000  1314.509000  1314.853000  1315.630000  
1315.663000  1315.809000  1316.502000  1317.583000  1318.509000  1318.966000  
1319.095000  1319.585000  1319.635000  1319.841000  1320.231000  1320.374000  
1320.699000  1320.927000  1320.962000  1321.362000  1321.714000  1322.002000  
1322.974000  1323.263000  1323.482000  1323.587000  1324.060000  1324.288000  
1324.850000  1324.887000  1324.997000  1326.537000  1326.644000  1327.147000  
1327.189000  1327.818000  1327.964000  1328.695000  1329.083000  1329.458000  
1329.680000  1329.798000  1330.923000  1331.125000  1331.389000  1331.606000  
1331.760000  1331.797000  1332.280000  1332.809000  1332.945000  1333.950000  
1334.831000  1336.669000  1336.909000  1337.320000  1337.572000  1338.366000  
1338.371000  1339.195000  1339.848000  1339.908000  1340.256000  1340.275000  
1341.091000  1341.313000  1341.540000  1342.032000  1342.753000  1343.608000  
1343.800000  1343.846000  1344.081000  1344.654000  1345.378000  1346.144000  
1347.231000  1347.489000  1349.032000  1349.756000  1349.799000  1349.883000  
1350.104000  1352.610000  1353.323000  1353.830000  1354.211000  1355.401000  
1355.634000  1355.640000  1355.695000  1355.761000  1357.044000  1357.417000  
1357.492000  1358.037000  1358.446000  1358.805000  1358.969000  1359.710000  
1360.030000  1360.256000  1360.925000  1361.188000  1361.283000  1361.314000  
1361.658000  1362.172000  1363.052000  1363.064000  1364.198000  1365.717000  
1365.928000  1366.002000  1366.120000  1366.436000  1366.754000  1366.982000  
1367.101000  1367.321000  1367.533000  1367.704000  1367.879000  1367.913000  
1368.193000  1368.987000  1369.480000  1369.951000  1370.033000  1370.616000  
1370.631000  1371.904000  1371.991000  1372.220000  1372.259000  1372.527000  
1372.550000  1372.693000  1374.230000  1374.311000  1375.668000  1376.740000  
1377.014000  1377.479000  1378.971000  1380.292000  1380.479000  1380.522000  
1380.946000  1383.321000  1383.569000  1383.763000  1385.280000  1386.502000  
1387.406000  1389.885000  1390.066000  1390.360000  1390.513000  1391.950000  
1392.443000  1392.613000  1392.823000  1393.191000  1393.278000  1393.894000  
1394.233000  1394.308000  1394.593000  1395.159000  1395.245000  1395.968000  
1396.093000  1396.921000  1396.942000  1397.108000  1397.392000  1397.965000  
1398.490000  1398.671000  1398.941000  1398.956000  1399.008000  1399.058000  
1399.543000  1399.566000  1399.635000  1399.648000  1399.837000  1399.920000  
1400.034000  1400.046000  1400.267000  1400.568000  1400.869000  1401.707000  
1402.666000  1403.083000  1403.309000  1403.803000  1404.219000  1404.232000  
1404.264000  1404.341000  1404.524000  1404.842000  1404.960000  1405.273000  
1405.734000  1405.804000  1406.012000  1406.357000  1406.428000  1407.002000  
1407.084000  1407.151000  1407.237000  1407.594000  1407.682000  1408.367000  
1408.389000  1408.430000  1408.730000  1408.980000  1409.174000  1409.252000  
1409.740000  1409.884000  1410.192000  1410.256000  1410.388000  1410.445000  
1410.713000  1410.991000  1411.452000  1411.598000  1411.821000  1411.857000  
1411.894000  1411.927000  1411.936000  1412.226000  1412.241000  1412.362000  
1412.847000  1413.062000  1413.480000  1413.719000  1413.874000  1413.900000  
1414.113000  1414.138000  1414.411000  1414.494000  1414.559000  1415.671000  
1416.142000  1416.219000  1416.334000  1416.739000  1417.023000  1417.326000  
1417.373000  1417.470000  1417.566000  1417.659000  1418.274000  1418.579000  
1418.665000  1419.140000  1419.193000  1419.303000  1419.326000  1419.607000  
1419.736000  1420.094000  1420.787000  1420.788000  1421.413000  1421.577000  
1421.708000  1421.799000  1422.069000  1422.075000  1422.114000  1422.159000  
1422.340000  1422.431000  1422.562000  1422.642000  1423.017000  1423.129000  
1423.580000  1423.788000  1423.815000  1423.925000  1424.053000  1424.110000  
1424.159000  1424.464000  1424.562000  1424.639000  1424.673000  1424.806000  
1424.907000  1425.037000  1425.081000  1425.088000  1425.110000  1425.524000  
1425.552000  1425.569000  1425.652000  1425.663000  1425.681000  1425.807000  
1425.903000  1425.982000  1426.104000  1426.254000  1426.284000  1426.466000  
1426.688000  1426.882000  1427.228000  1427.418000  1427.436000  1427.585000  
1427.681000  1428.041000  1428.137000  1428.261000  1428.454000  1428.735000  
1428.897000  1429.042000  1429.128000  1429.294000  1429.316000  1429.375000  
1429.382000  1429.413000  1429.614000  1429.650000  1429.686000  1429.744000  
1429.994000  1430.136000  1430.240000  1430.331000  1430.382000  1430.585000  
1430.642000  1430.801000  1430.893000  1430.988000  1430.995000  1431.132000  
1431.228000  1431.305000  1431.422000  1431.500000  1431.607000  1431.720000  
1431.776000  1431.794000  1431.909000  1431.977000  1432.130000  1432.337000  
1432.408000  1432.553000  1432.662000  1432.722000  1432.793000  1432.799000  
1432.832000  1432.920000  1433.049000  1433.229000  1433.326000  1433.407000  
1433.515000  1433.631000  1433.791000  1433.987000  1434.182000  1434.248000  
1434.646000  1434.752000  1434.963000  1434.977000  1435.317000  1435.338000  
1435.517000  1435.602000  1435.641000  1435.653000  1435.883000  1436.010000  
1436.052000  1436.089000  1436.250000  1436.318000  1436.455000  1436.491000  
1436.568000  1436.782000  1436.909000  1436.925000  1436.950000  1437.100000  
1437.148000  1437.249000  1437.340000  1437.379000  1437.620000  1437.833000  
1438.139000  1438.186000  1438.226000  1438.537000  1438.608000  1438.755000  
1438.824000  1438.844000  1439.060000  1439.213000  1439.238000  1439.384000  
1439.448000  1439.738000  1439.834000  1439.906000  1439.962000  1440.095000  
1440.158000  1440.297000  1440.343000  1440.370000  1440.604000  1440.724000  
1441.003000  1441.115000  1441.134000  1441.377000  1441.738000  1441.760000  
1441.944000  1442.391000  1442.456000  1442.510000  1442.662000  1442.762000  
1442.884000  1443.135000  1443.408000  1443.561000  1443.602000  1443.666000  
1443.767000  1443.875000  1444.038000  1444.209000  1444.613000  1444.679000  
1444.763000  1445.002000  1445.399000  1445.460000  1445.608000  1445.640000  
1446.804000  1446.873000  1446.879000  1447.218000  1447.314000  1447.507000  
1447.680000  1447.707000  1447.762000  1448.003000  1448.103000  1448.341000  
1448.482000  1448.537000  1448.863000  1449.711000  1449.925000  1450.184000  
1450.694000  1450.860000  1451.101000  1451.196000  1451.306000  1451.398000  
1451.536000  1451.790000  1452.209000  1452.327000  1452.626000  1453.789000  
1453.943000  1454.477000  1454.733000  1454.925000  1455.030000  1455.386000  
1455.394000  1456.281000  1456.299000  1456.654000  1457.597000  1458.159000  
1458.178000  1458.737000  1459.353000  1460.359000  1460.674000  1461.177000  
1461.626000  1461.669000  1462.265000  1462.607000  1462.793000  1462.857000  
1462.881000  1462.928000  1463.233000  1463.601000  1463.688000  1463.824000  
1464.485000  1464.524000  1464.574000  1464.771000  1465.624000  1465.956000  
1466.340000  1466.403000  1466.713000  1467.570000  1467.880000  1467.951000  
1468.688000  1469.218000  1469.515000  1471.063000  1471.352000  1472.441000  
1473.209000  1474.042000  1474.426000  1474.645000  1475.121000  1475.184000  
1475.429000  1475.675000  1475.841000  1476.093000  1476.516000  1477.395000  
1478.144000  1479.025000  1479.619000  1480.129000  1480.449000  1481.069000  
1481.283000  1482.497000  1483.199000  1483.683000  1484.154000  1484.259000  
1484.366000  1484.969000  1485.128000  1485.594000  1485.725000  1486.613000  
1486.723000  1486.743000  1486.825000  1486.836000  1487.532000  1487.869000  
1488.109000  1488.616000  1489.296000  1489.467000  1489.739000  1489.981000  
1490.032000  1490.184000  1490.211000  1490.878000  1491.034000  1491.209000  
1491.520000  1491.716000  1492.793000  1493.850000  1494.410000  1495.166000  
1495.914000  1496.277000  1496.575000  1498.118000  1499.787000  1501.301000  
1504.338000  1504.670000  1504.687000  1505.168000  1506.381000  1509.200000  
1509.808000  1510.573000  1511.441000  1512.807000  1513.999000  1516.262000  
1518.654000  1521.190000  1521.768000  1525.746000  1526.026000  1526.679000  
1527.172000  1528.183000  1528.664000  1529.533000  1529.609000  1529.947000  
1530.973000  1531.352000  1532.169000  1533.345000  1535.070000  1535.659000  
1540.475000  1544.957000  1545.340000  1547.192000  1549.013000  1554.764000  
1556.568000  1556.750000  1557.268000  1559.835000  1560.178000  1561.627000  
1562.289000  1562.970000  1564.585000  1565.175000  1565.894000  1566.898000  
1567.482000  1567.783000  1568.651000  1568.684000  1568.783000  1570.826000  
1571.142000  1572.025000  1572.072000  1573.111000  1573.320000  1573.434000  
1574.324000  1574.440000  1574.935000  1576.360000  1576.899000  1577.896000  
1578.274000  1578.795000  1579.340000  1579.576000  1580.207000  1580.391000  
1580.831000  1581.301000  1581.592000  1581.687000  1581.823000  1582.339000  
1583.348000  1583.583000  1583.778000  1584.721000  1584.792000  1585.629000  
1586.021000  1586.732000  1587.071000  1587.230000  1587.366000  1588.249000  
1588.291000  1588.456000  1588.600000  1589.039000  1589.263000  1589.546000  
1589.997000  1590.058000  1590.592000  1590.674000  1590.904000  1591.340000  
1591.361000  1591.663000  1592.982000  1593.075000  1593.131000  1593.306000  
1593.650000  1593.669000  1594.299000  1594.546000  1594.907000  1595.254000  
1595.431000  1595.699000  1595.742000  1597.027000  1598.081000  1599.473000  
1599.520000  1601.698000  1602.053000  1602.245000  1603.048000  1603.152000  
1603.775000  1603.775000  1604.995000  1605.124000  1605.278000  1605.605000  
1606.623000  1607.189000  1607.403000  1607.513000  1608.461000  1608.700000  
1608.817000  1612.042000  1613.737000  1613.953000  1614.532000  1617.352000  
1618.000000  1619.308000  1619.842000  1620.112000  1624.807000  1626.507000  
1627.515000  1628.926000  1629.015000  1632.138000  1633.309000  1633.389000  
1633.433000  1633.621000  1635.663000  1635.920000  1637.555000  1637.739000  
1638.306000  1639.169000  1640.440000  1641.786000  1643.059000  1643.374000  
1644.495000  1648.967000  1650.382000  1655.379000  1656.767000  1658.396000  
1659.680000  1667.342000  1672.204000  1673.479000  1673.695000  1676.270000  
1676.276000  1676.306000  1676.638000  1677.880000  1678.561000  1679.195000  
1679.858000  1680.554000  1680.912000  1680.941000  1682.034000  1682.381000  
1682.941000  1683.413000  1685.065000  1691.426000  1691.941000  1691.954000  
1692.469000  1692.564000  1692.809000  1693.145000  1693.188000  1694.380000  
1694.744000  1694.809000  1694.893000  1694.897000  1695.413000  1695.430000  
1695.892000  1696.018000  1696.298000  1696.352000  1696.391000  1696.493000  
1696.590000  1696.794000  1697.065000  1697.233000  1697.256000  1697.286000  
1697.346000  1697.464000  1697.509000  1698.122000  1698.138000  1698.205000  
1698.529000  1698.575000  1698.605000  1698.644000  1698.829000  1699.121000  
1699.438000  1699.540000  1699.748000  1699.833000  1700.152000  1700.261000  
1700.694000  1701.035000  1701.051000  1701.136000  1701.139000  1701.193000  
1701.673000  1701.996000  1702.176000  1703.180000  1703.266000  1703.359000  
1703.402000  1703.627000  1703.930000  1704.021000  1704.117000  1705.616000  
1706.793000  1707.272000  1708.187000  1740.199000  1747.757000  1751.802000  
1756.774000  1758.694000  1759.824000  2591.253000  2849.864000  2852.393000  
2852.417000  2852.872000  2852.942000  2853.346000  2853.877000  2853.891000  
2853.903000  2854.834000  2855.192000  2855.253000  2855.315000  2855.595000  
2855.614000  2855.866000  2855.977000  2856.123000  2856.237000  2856.675000  
2856.684000  2856.761000  2857.247000  2857.445000  2857.569000  2857.676000  
2858.036000  2858.258000  2858.507000  2858.935000  2859.144000  2859.401000  
2859.865000  2859.867000  2860.074000  2860.515000  2861.107000  2862.378000  
2862.593000  2865.854000  2866.611000  2870.912000  2883.568000  2886.841000  
2887.358000  2887.520000  2887.955000  2889.693000  2890.286000  2890.624000  
2890.904000  2890.970000  2891.373000  2891.390000  2891.530000  2891.821000  
2891.823000  2891.833000  2892.013000  2892.423000  2892.581000  2892.702000  
2893.313000  2893.454000  2893.512000  2893.565000  2894.045000  2894.569000  
2894.597000  2894.938000  2895.037000  2895.537000  2895.676000  2896.186000  
2896.502000  2896.564000  2896.842000  2897.000000  2897.462000  2897.510000  
2897.900000  2898.227000  2898.589000  2898.679000  2898.726000  2898.774000  
2898.899000  2899.127000  2899.262000  2899.293000  2899.405000  2899.479000  
2899.708000  2899.724000  2899.746000  2899.888000  2899.920000  2899.945000  
2899.954000  2900.049000  2900.275000  2900.586000  2900.616000  2900.711000  
2900.936000  2900.978000  2901.061000  2901.149000  2901.248000  2901.348000  
2901.415000  2901.424000  2901.595000  2901.636000  2901.805000  2901.816000  
2901.930000  2902.051000  2902.063000  2902.233000  2902.256000  2902.406000  
2902.518000  2902.583000  2902.611000  2902.688000  2902.741000  2902.783000  
2902.887000  2902.931000  2903.238000  2903.299000  2903.331000  2903.368000  
2903.399000  2903.529000  2903.532000  2903.682000  2903.837000  2903.951000  
2904.099000  2904.129000  2904.234000  2904.649000  2904.649000  2904.747000  
2904.766000  2904.837000  2904.897000  2905.007000  2905.022000  2905.115000  
2905.338000  2905.461000  2905.471000  2905.676000  2905.740000  2905.996000  
2906.041000  2906.049000  2906.086000  2906.466000  2906.550000  2906.644000  
2906.963000  2907.040000  2907.067000  2907.221000  2907.292000  2907.298000  
2907.367000  2907.452000  2907.821000  2907.878000  2907.891000  2907.896000  
2907.898000  2907.947000  2908.032000  2908.088000  2908.161000  2908.205000  
2908.280000  2908.292000  2908.309000  2908.428000  2908.520000  2908.577000  
2908.581000  2908.629000  2908.747000  2908.754000  2908.810000  2908.840000  
2908.906000  2908.918000  2908.999000  2909.009000  2909.053000  2909.066000  
2909.102000  2909.105000  2909.151000  2909.279000  2909.326000  2909.346000  
2909.361000  2909.455000  2909.517000  2909.521000  2909.567000  2909.646000  
2909.673000  2909.675000  2909.693000  2909.699000  2909.791000  2909.825000  
2909.833000  2909.837000  2910.017000  2910.245000  2910.433000  2910.522000  
2910.670000  2910.794000  2910.894000  2910.911000  2911.069000  2911.158000  
2911.517000  2911.713000  2911.738000  2911.773000  2911.805000  2911.857000  
2912.026000  2912.085000  2912.266000  2912.443000  2912.676000  2912.703000  
2912.704000  2912.870000  2912.886000  2912.993000  2913.082000  2913.442000  
2913.928000  2914.058000  2914.120000  2914.298000  2914.667000  2914.943000  
2914.994000  2915.251000  2915.869000  2916.200000  2916.214000  2916.552000  
2916.628000  2916.857000  2917.025000  2917.217000  2917.280000  2917.373000  
2917.965000  2917.973000  2919.429000  2919.624000  2919.714000  2919.895000  
2920.447000  2920.491000  2920.833000  2921.069000  2921.301000  2921.774000  
2922.255000  2922.733000  2923.407000  2923.476000  2923.477000  2923.483000  
2923.621000  2925.312000  2925.388000  2925.640000  2925.796000  2925.839000  
2926.568000  2926.822000  2926.980000  2927.092000  2927.218000  2927.681000  
2927.961000  2928.184000  2928.765000  2928.857000  2928.863000  2929.123000  
2929.438000  2929.523000  2929.638000  2929.816000  2929.920000  2930.671000  
2930.697000  2930.763000  2930.878000  2930.892000  2931.216000  2931.226000  
2931.367000  2931.632000  2931.675000  2931.785000  2931.836000  2932.380000  
2932.448000  2932.644000  2932.951000  2933.180000  2933.973000  2934.336000  
2934.353000  2934.435000  2934.628000  2934.883000  2934.898000  2935.024000  
2935.286000  2935.335000  2936.091000  2936.119000  2936.259000  2936.312000  
2936.620000  2936.966000  2937.045000  2937.189000  2937.231000  2937.376000  
2937.702000  2937.765000  2937.815000  2938.842000  2939.175000  2940.078000  
2940.251000  2941.406000  2941.578000  2942.521000  2942.701000  2943.170000  
2943.468000  2944.063000  2944.207000  2944.214000  2944.312000  2944.515000  
2944.600000  2944.950000  2944.957000  2945.130000  2945.226000  2945.268000  
2945.508000  2945.514000  2945.765000  2945.809000  2945.927000  2946.231000  
2946.311000  2946.434000  2946.835000  2947.074000  2947.228000  2947.352000  
2947.759000  2948.058000  2948.592000  2949.704000  2949.813000  2949.877000  
2949.928000  2951.573000  2952.388000  2952.570000  2953.469000  2953.578000  
2954.761000  2954.863000  2955.018000  2955.219000  2956.408000  2957.027000  
2957.234000  2957.249000  2957.464000  2957.583000  2957.625000  2957.781000  
2957.992000  2958.055000  2958.105000  2958.156000  2958.210000  2958.230000  
2958.325000  2958.410000  2958.730000  2958.816000  2959.051000  2959.302000  
2959.316000  2959.357000  2959.440000  2959.657000  2959.672000  2959.860000  
2959.899000  2959.907000  2959.939000  2960.092000  2960.256000  2960.363000  
2960.391000  2960.415000  2960.439000  2960.479000  2960.593000  2960.603000  
2960.677000  2960.837000  2960.967000  2961.087000  2961.483000  2961.610000  
2961.673000  2961.694000  2961.847000  2961.950000  2962.116000  2962.174000  
2962.174000  2962.255000  2962.521000  2962.544000  2962.733000  2962.773000  
2963.129000  2963.143000  2963.595000  2963.738000  2963.886000  2964.006000  
2964.584000  2965.111000  2965.600000  2965.720000  2966.050000  2966.379000  
2966.534000  2966.582000  2966.624000  2966.768000  2967.607000  2967.712000  
2967.900000  2968.347000  2968.536000  2969.451000  2969.681000  2969.829000  
2970.042000  2970.254000  2970.814000  2971.690000  2972.119000  2973.069000  
2973.778000  2974.107000  2974.819000  2976.349000  2978.247000  2979.229000  
2980.388000  2980.677000  2983.567000  2985.081000  3053.468000  3053.600000  
3053.724000  3054.122000  3054.129000  3054.161000  3054.539000  3054.620000  
3054.696000  3054.767000  3055.165000  3055.256000  3055.438000  3055.677000  
3055.696000  3055.809000  3056.116000  3056.126000  3056.259000  3056.339000  
3056.402000  3056.801000  3056.822000  3057.294000  3057.368000  3057.748000  
3057.858000  3057.997000  3058.152000  3058.231000  3058.867000  3058.889000  
3058.959000  3059.221000  3059.378000  3059.501000  3059.517000  3059.685000  
3059.917000  3059.988000  3060.051000  3060.116000  3060.404000  3061.663000  
3061.702000  3062.150000  3063.490000  3063.700000  3063.911000  3064.021000  
3064.532000  3064.942000  3065.149000  3066.049000  3067.015000  3067.158000  
3067.174000  3067.973000  3068.243000  3069.043000  3071.569000  3072.165000  
3072.371000  3074.681000  3076.029000  3076.636000  3082.769000  3083.278000  
3107.995000  3134.663000  3136.164000  3136.300000  3138.069000  3139.541000  
3143.621000  3147.474000  3148.231000  3148.364000  3148.929000  3150.520000  
3160.393000  3160.558000  3162.915000  3239.149000  3240.470000  3240.823000  
3242.916000  3243.822000  3245.150000  3256.002000  3256.325000  3256.724000  
3256.903000  3257.026000  3257.105000  3257.365000  3257.846000  3258.280000  
3258.314000  3258.393000  3258.562000  3258.603000  3258.612000  3258.664000  
3259.234000  3279.331000  3283.129000  3283.950000  3285.115000  3297.704000  
3299.601000  3303.014000  3303.298000  3304.087000  3304.386000  3308.168000  
3308.299000  3310.043000  3310.196000  3310.270000  3310.701000  3311.275000  
3311.421000  3311.704000  3311.900000  3312.157000  3312.297000  3312.399000  
3312.487000  3312.721000  3312.821000  3313.071000  3313.440000  3313.717000  
3314.001000  3314.256000  3314.551000  3314.707000  3315.580000  3315.736000  
3315.925000  3316.249000  3316.629000  3316.841000  3317.166000  3317.208000  
3317.362000  3318.385000  3318.833000  3318.979000  3319.107000  3319.185000  
3319.362000  3319.619000  3320.228000  3320.258000  3320.527000  3321.150000  
3321.319000  3321.368000  3321.433000  3321.824000  3321.857000  3322.537000  
3322.698000  3322.744000  3322.801000  3322.936000  3323.118000  3323.448000  
3323.658000  3323.806000  3324.208000  3324.322000  3324.353000  3324.786000  
3325.094000  3325.551000  3325.860000  3326.243000  3326.289000  3326.321000  
3326.693000  3328.018000  3328.249000  3329.908000  3329.986000  3330.435000  
3331.549000  3331.953000  3332.031000  3332.370000  3332.491000  3332.682000  
3333.541000  3351.916000  3355.484000  3357.075000  3360.647000  3363.826000  
3390.138000  3401.800000  3403.526000  3405.302000  3411.292000  3416.838000  
3417.430000  3417.877000  3421.177000  3422.599000  3428.818000  3429.178000  
3431.356000  3432.057000  3432.095000  3491.140000  3507.388000  3513.671000  
3522.061000  3525.442000  3528.221000  3531.661000  3665.980000  3666.575000  
3674.209000  3676.247000  3676.473000  3676.545000  3677.016000  3680.169000  

Extensive quantities:
            Elec      Trans        Rot      VibCl      VibQm      TotCl    TotQm 
   U   -3083.190      0.894      0.894   2575.417   7955.387   -505.985   4873.985 kcal
   S       0.000     47.158     52.773  -2778.022   3238.610  -2678.091   3338.541  cal
 -TS       0.000    -14.147    -15.832    833.407   -971.583    803.427  -1001.562 kcal
   F   -3083.190    -13.253    -14.938   3408.823   6983.804    297.442   3872.423 kcal

Intensive (molar) quantities:
            Elec      Trans        Rot      VibCl      VibQm      TotCl      TotQm 
   Um  -3083.190      0.894      0.894   2575.417   7955.387   -505.985   4873.985 kcal/mol
   Sm      0.000     45.171     52.773  -2778.022   3238.610  -2680.078   3336.554  cal/mol
 -TSm      0.000    -13.551    -15.832    833.407   -971.583    804.023  -1000.966 kcal/mol
   Fm  -3083.190    -12.657    -14.938   3408.823   6983.804    298.039   3873.019 kcal/mol

Zero point vibrational energy:    7484.640 kcal/mol


Differences for the reaction 1A <-> 1B                
---------------------------------------------

Intensive (molar) quantities:
            Elec      Trans        Rot      VibCl      VibQm      TotCl      TotQm 
   Um     -0.770      0.000      0.000      0.000     -1.619     -0.770     -2.389 kcal/mol
   Sm      0.000      0.000     -0.058    -21.540    -23.289    -21.598    -23.347  cal/mol
 -TSm      0.000     -0.000      0.017      6.462      6.987      6.479      7.004 kcal/mol
   Fm     -0.770      0.000      0.017      6.462      5.368      5.709      4.615 kcal/mol

Zero point vibrational energy:      -1.172 kcal/mol
Vibrational quantum correction:     -1.094 kcal/mol

