
    Thermo 1.0
    ==========

Copyright (C) 2014-2017 Simone Conti
Copyright (C) 2015-2016 Universit√© de Strasbourg
License GPLv3+: GNU GPL version 3 or later <http://gnu.org/licenses/gpl.html>.
This is free software: you are free to change and redistribute it.
There is NO WARRANTY, to the extent permitted by law.

Written by Simone Conti.


Molecule A: <bhp1.inp>                
---------------------------------------------

Parsed thermodynamic quantities:
   Temperature [K]:           300
   Number of moles [mol]:     1
   Volume [dm^3]:             1
   Concentration [M]:         1
   Molecular mass [g/mol]:    1859.93
   Molar energy [kcal/mol]:   -525.880000
   Degree of freedom:
      translational:          3
      rotational:             3
         moments of inerzia [g/mol/A^2]:
            26634.340000
            92656.670000
            95610.190000
         symmetry number:     1
      vibrational modes:      474
         frequencies [1/cm]: 
   7.227725    11.901532    12.042323    14.957872    15.662237    18.617226  
  19.171424    20.070880    22.091981    23.174981    24.909480    25.621175  
  27.757051    28.332404    29.130762    30.845585    32.892974    34.357239  
  34.491056    35.163901    36.001460    38.082015    39.849215    40.189105  
  41.068960    42.158985    45.036158    46.241865    46.603487    47.815727  
  50.407150    52.128536    52.983867    54.136102    54.693695    55.008999  
  57.344197    58.964380    60.658755    60.840743    62.435479    64.210879  
  65.459457    66.003172    69.258269    69.709852    71.570136    72.768101  
  75.194592    77.200419    78.697741    81.456107    82.671330    84.812198  
  85.392009    86.224670    87.644414    91.254863    92.710456    94.368956  
  95.021249    98.440118    99.622012   101.497188   102.361635   104.185184  
 105.063825   105.383966   106.867802   109.574049   111.031548   112.110287  
 113.447097   114.913592   117.629518   120.141474   121.680956   123.189672  
 127.801156   130.267533   131.164341   133.441922   139.090926   139.387403  
 143.211487   144.281036   147.547919   152.186036   156.300207   162.442279  
 163.618427   165.549925   170.762953   173.267251   179.335731   181.335856  
 183.689182   190.104112   192.271967   196.286058   200.034259   202.024620  
 203.680823   206.567923   207.382841   209.221166   211.017810   215.985578  
 221.689295   231.339008   231.531128   232.744203   236.274990   236.605601  
 238.069250   241.776830   243.461059   246.100318   247.610681   248.214725  
 251.461687   258.153057   259.983228   263.085193   265.417633   267.446120  
 269.798821   270.133933   273.370801   279.971075   281.576600   286.940855  
 289.034427   295.233811   296.512469   301.069369   304.704688   305.035073  
 305.701050   309.551289   312.421165   314.584295   315.306901   318.592296  
 320.535145   324.769287   325.242148   328.809728   330.139080   333.803566  
 343.153423   343.475488   344.206166   344.816464   353.925576   358.585436  
 361.556635   364.115735   369.448188   371.947890   378.663627   382.243080  
 384.636656   388.937096   398.476497   400.337709   403.700523   403.907282  
 409.507823   413.193928   416.031052   417.610317   419.158055   422.187961  
 427.021746   428.134233   435.651137   438.716951   446.460038   451.607703  
 466.277539   471.605711   473.890866   476.477998   478.171574   482.845967  
 485.294882   485.737687   494.865347   495.428433   497.778574   502.459007  
 508.966329   513.401191   523.605841   528.537957   528.969662   531.706100  
 534.624848   547.415923   549.843050   550.649490   552.427646   561.971674  
 564.731294   571.669725   588.024883   589.179520   595.936848   596.711461  
 602.975173   604.773967   607.019534   610.219268   614.087471   615.579929  
 618.579288   624.656041   625.176701   626.512780   629.441987   632.370872  
 634.051849   635.136999   636.167571   640.208151   640.281494   642.941655  
 651.234799   655.387435   657.323220   659.651358   665.895371   666.623715  
 670.568291   674.036090   677.932248   686.150901   692.980458   697.964488  
 702.584361   705.051387   709.708727   714.274825   721.157057   723.509670  
 729.506034   735.054266   736.736175   752.671445   763.218915   776.562725  
 779.840465   797.774977   805.971496   809.187189   809.878599   814.510552  
 818.977267   823.352257   827.845418   830.521764   832.732038   838.261023  
 842.736524   846.976146   848.565950   850.246112   853.207285   854.489473  
 855.998402   856.650114   860.954245   866.896068   869.184708   874.086223  
 876.110202   878.064445   883.579370   887.600244   890.048079   891.851643  
 895.324642   901.980755   903.802533   908.214995   909.213990   910.248021  
 917.568125   917.695229   919.470006   924.019116   924.307698   926.700674  
 927.968207   929.686507   934.385354   935.651499   937.031083   937.299650  
 937.448909   939.287337   945.409767   948.677644   950.143217   951.675055  
 965.219036   966.556949   979.179848   980.917893   993.352772   998.535016  
1002.637269  1010.934445  1012.588426  1014.697219  1025.605632  1039.825578  
1045.241194  1046.475217  1049.375390  1058.560635  1060.503328  1063.686336  
1065.288471  1070.939932  1075.488343  1076.408788  1085.824806  1091.166957  
1092.575093  1100.474874  1106.397836  1108.292249  1118.875269  1119.782568  
1123.693062  1126.305642  1127.946135  1138.004102  1176.582902  1195.512281  
1196.299437  1199.182157  1199.831194  1202.324197  1203.052573  1206.870941  
1208.092157  1215.122626  1216.059565  1217.193110  1219.009626  1220.503865  
1220.864206  1227.706541  1230.027358  1230.633887  1239.660781  1245.424662  
1248.654862  1256.322663  1258.283522  1259.455060  1266.518099  1273.203275  
1273.365522  1317.477973  1325.875360  1340.789410  1347.832218  1370.912304  
1373.787222  1374.230117  1376.091487  1377.891302  1387.188465  1387.622386  
1388.772493  1391.580949  1392.323359  1396.321816  1399.322164  1402.955462  
1403.288701  1410.676014  1415.620312  1471.206014  1505.592399  1518.587859  
1521.457981  1541.040618  1546.056858  1548.114114  1550.431240  1563.061088  
1576.065553  1577.772630  1581.680017  1584.746389  1585.212060  1586.938714  
1596.727537  1607.730460  1611.625561  1612.706285  1614.893050  1615.610467  
1616.653952  1620.293929  1621.543834  1626.244069  1628.934993  1635.665204  
1637.951556  1639.476591  1644.580826  1644.848671  1648.752232  1650.077582  
1652.980819  1654.117541  1656.409639  1663.384389  1668.176812  1674.694401  
1676.471533  1677.085545  1677.944474  1679.426040  1679.986795  1681.387104  
1685.148438  1686.402757  1686.768423  1687.407317  1692.285700  1696.727833  
1698.569338  1700.892986  1710.539958  1711.845295  1714.231510  1714.268617  
1731.515989  1770.340766  3134.568478  3137.179347  3193.583884  3193.885038  
3195.694040  3196.281647  3197.173700  3197.188962  3198.132102  3198.175001  
3198.992055  3201.992852  3204.728371  3206.118612  3213.345131  3227.204939  
3228.809536  3229.638260  3237.471081  3250.792165  3266.872541  3274.127689  
3343.020356  3349.017090  3349.278669  3349.572390  3355.479417  3393.932536  

Extensive quantities:
            Elec      Trans        Rot      VibCl      VibQm      TotCl    TotQm 
   U    -525.880      0.894      0.894    282.580    664.549   -241.511    140.458 kcal
   S       0.000     42.096     44.498    123.291    582.199    209.885    668.793  cal
 -TS       0.000    -12.629    -13.350    -36.987   -174.660    -62.966   -200.638 kcal
   F    -525.880    -11.735    -12.455    245.593    489.889   -304.477    -60.180 kcal

Intensive (molar) quantities:
            Elec      Trans        Rot      VibCl      VibQm      TotCl      TotQm 
   Um   -525.880      0.894      0.894    282.580    664.549   -241.511    140.458 kcal/mol
   Sm      0.000     40.109     44.498    123.291    582.199    207.898    666.806  cal/mol
 -TSm      0.000    -12.033    -13.350    -36.987   -174.660    -62.369   -200.042 kcal/mol
   Fm   -525.880    -11.138    -12.455    245.593    489.889   -303.880    -59.584 kcal/mol

Zero point vibrational energy:     584.552 kcal/mol


Molecule B: <bhp2.inp>                
---------------------------------------------

Parsed thermodynamic quantities:
   Temperature [K]:           300
   Number of moles [mol]:     1
   Volume [dm^3]:             1
   Concentration [M]:         1
   Molecular mass [g/mol]:    1859.93
   Molar energy [kcal/mol]:   -524.130000
   Degree of freedom:
      translational:          3
      rotational:             3
         moments of inerzia [g/mol/A^2]:
            36675.160000
            60759.510000
            72137.680000
         symmetry number:     1
      vibrational modes:      474
         frequencies [1/cm]: 
   6.719747     8.059686    11.156182    11.760188    13.473719    14.729763  
  17.175520    18.880613    19.074370    20.951642    23.482998    24.721912  
  24.960670    27.892691    28.231636    29.826541    30.914660    32.363532  
  33.763193    34.617505    35.686716    38.670744    40.158791    41.025829  
  41.537581    43.209401    44.719294    46.331233    47.264655    47.761492  
  50.392291    50.753438    53.957031    55.073012    55.592553    56.779294  
  57.456451    58.193117    58.679111    59.900779    60.202231    62.339537  
  64.530397    67.863644    68.086218    69.555716    72.037060    72.336180  
  73.819174    74.238226    76.551239    78.110771    78.564461    80.769684  
  81.961131    84.198568    86.391947    86.509734    88.503223    90.780818  
  92.054436    93.271227    95.456069    99.602375   102.343140   103.343041  
 106.405255   107.139476   109.640458   110.954619   111.568540   114.282519  
 119.152535   120.332326   121.891512   123.275441   127.244411   127.711191  
 128.830444   130.667507   136.737761   137.871128   141.142040   144.842242  
 148.362779   149.981218   150.671332   152.655445   156.670123   157.066936  
 160.665687   166.982145   169.622968   171.655814   173.311667   176.500669  
 179.114075   185.168005   188.473580   190.849316   196.050192   201.832371  
 205.306639   208.880194   210.160855   214.370073   216.711135   218.300630  
 221.117446   229.133170   232.662515   235.013683   236.587020   241.117467  
 242.594190   243.171126   251.018199   252.234342   258.158491   260.357280  
 263.522752   266.186204   273.191867   275.272479   282.270070   284.393152  
 285.984123   287.287502   292.864141   293.791372   298.165270   300.451018  
 302.644726   305.895792   308.873930   311.473828   313.362007   315.209756  
 318.494055   324.101305   325.557502   327.721789   329.739384   331.166419  
 332.668319   334.549753   336.131150   339.943081   344.225031   345.118516  
 347.147040   349.471185   353.906232   356.184356   360.195156   362.677215  
 363.417060   368.795315   372.312083   376.656730   384.124917   385.249907  
 388.341349   394.281953   396.186288   400.296163   401.068414   405.942106  
 406.261508   408.950979   410.241701   418.225508   424.342415   425.375460  
 427.251025   428.581686   435.347472   438.259015   446.320079   453.462666  
 454.555651   466.645956   469.489094   471.073894   475.252026   476.046782  
 477.979025   483.619011   486.284093   489.172594   493.681249   500.972203  
 507.409829   510.578471   511.159303   518.556570   521.569269   533.680807  
 540.512064   542.330677   544.341767   555.738206   557.416567   561.724351  
 575.062686   576.730286   584.655548   585.760683   589.704213   598.704426  
 604.543038   606.268561   606.354888   607.029704   610.280537   612.657534  
 616.362365   617.824530   619.033542   619.297599   626.955976   631.898893  
 635.669665   636.940901   639.150288   641.136464   643.571738   648.812171  
 653.677205   654.649076   656.085002   661.723224   665.474082   667.769431  
 674.975754   675.821331   677.497554   687.274764   690.146704   700.286965  
 701.235278   707.194994   712.351666   715.413752   720.584836   723.758561  
 725.816285   727.375741   738.302433   754.469807   767.395797   768.821108  
 774.516256   775.499228   800.563580   807.769473   808.794726   810.350271  
 824.274492   826.117440   828.716259   830.110921   834.022671   839.950287  
 841.772770   845.078713   848.239569   850.812640   855.218814   857.363308  
 861.457152   866.264903   872.861048   874.523206   876.506017   879.657308  
 883.270897   885.699626   887.905064   890.900683   893.946617   903.144304  
 905.303292   907.548742   910.172658   918.335906   920.141477   921.650714  
 922.013641   924.298607   925.353217   927.069419   930.168128   930.236795  
 931.344309   932.792550   936.513475   937.691202   941.896542   945.184330  
 947.138925   947.699004   950.201296   951.447917   954.428792   964.170831  
 966.182118   972.998861   986.021251   994.865165  1002.580722  1006.365666  
1010.850599  1011.823488  1017.177412  1018.125326  1024.530378  1026.005565  
1038.525388  1049.260971  1053.067598  1055.738476  1057.630880  1066.265172  
1067.517758  1081.054077  1083.076559  1089.558287  1095.178608  1095.368400  
1101.545976  1102.593588  1104.751025  1122.083139  1124.052287  1129.168425  
1135.924613  1145.730648  1148.178642  1148.490090  1172.323542  1177.127869  
1191.663697  1195.935024  1198.651335  1201.718320  1203.231206  1204.490870  
1205.501922  1210.008426  1215.521776  1215.864288  1217.617756  1219.819835  
1223.337315  1224.149172  1233.905828  1235.495002  1244.498498  1248.239122  
1252.037456  1260.643026  1260.873660  1263.406113  1265.727173  1268.312636  
1273.848648  1313.014826  1322.738192  1342.913546  1351.210567  1365.187844  
1368.259952  1371.866727  1373.434799  1378.260421  1380.384237  1384.097569  
1388.879089  1391.758179  1392.268311  1397.760057  1398.578428  1401.015907  
1410.557719  1417.195887  1422.156945  1457.399598  1468.194713  1521.085704  
1540.385746  1550.244690  1557.235663  1558.462578  1560.355771  1565.661893  
1578.077257  1579.416881  1581.965696  1582.440354  1595.030323  1597.766804  
1607.443788  1607.935297  1611.631892  1611.718488  1613.873274  1614.918168  
1616.314411  1619.166483  1622.476378  1625.231145  1628.104982  1632.770669  
1635.602939  1637.000478  1639.048073  1641.031140  1645.673296  1646.468979  
1650.829835  1652.566227  1656.946905  1665.102214  1672.021506  1673.145754  
1674.202439  1674.350292  1676.787510  1677.992480  1680.335929  1682.455188  
1684.346579  1684.660512  1689.079137  1691.061170  1691.436628  1695.795246  
1696.664221  1702.313075  1702.690237  1702.834656  1703.614281  1714.276837  
1735.078062  1769.695812  3117.631936  3155.492251  3194.153474  3195.620561  
3196.165938  3197.645531  3198.052524  3198.905566  3199.587116  3202.122485  
3203.486736  3204.107026  3207.210370  3209.306532  3211.086161  3213.017413  
3216.033140  3219.684230  3227.604253  3235.342683  3247.669905  3272.933531  
3346.677027  3347.720812  3349.787373  3350.428031  3361.307146  3384.782047  

Extensive quantities:
            Elec      Trans        Rot      VibCl      VibQm      TotCl    TotQm 
   U    -524.130      0.894      0.894    282.580    665.170   -239.761    142.828 kcal
   S       0.000     42.096     44.117    124.009    583.840    210.223    670.053  cal
 -TS       0.000    -12.629    -13.235    -37.203   -175.152    -63.067   -201.016 kcal
   F    -524.130    -11.735    -12.341    245.378    490.018   -302.828    -58.188 kcal

Intensive (molar) quantities:
            Elec      Trans        Rot      VibCl      VibQm      TotCl      TotQm 
   Um   -524.130      0.894      0.894    282.580    665.170   -239.761    142.828 kcal/mol
   Sm      0.000     40.109     44.117    124.009    583.840    208.235    668.066  cal/mol
 -TSm      0.000    -12.033    -13.235    -37.203   -175.152    -62.471   -200.420 kcal/mol
   Fm   -524.130    -11.138    -12.341    245.378    490.018   -302.232    -57.591 kcal/mol

Zero point vibrational energy:     585.499 kcal/mol


Differences for the reaction 1A <-> 1B                
---------------------------------------------

Intensive (molar) quantities:
            Elec      Trans        Rot      VibCl      VibQm      TotCl      TotQm 
   Um      1.750      0.000      0.000      0.000      0.621      1.750      2.371 kcal/mol
   Sm      0.000      0.000     -0.381      0.719      1.641      0.337      1.259  cal/mol
 -TSm      0.000     -0.000      0.114     -0.216     -0.492     -0.101     -0.378 kcal/mol
   Fm      1.750      0.000      0.114     -0.216      0.128      1.649      1.993 kcal/mol

Zero point vibrational energy:       0.948 kcal/mol
Vibrational quantum correction:      0.344 kcal/mol

